,P4,Cz,F8,T7
2000,7.701076533443942,-0.5845605896619404,-2.3873082783361816,0.7921876878138818
2001,16.789691965034717,9.589493268506752,6.939005845414739,2.4728953188793383
2002,19.779299191826716,13.890479594793996,9.068441624076543,2.3978083278738804
2003,20.452378420247552,12.354149337609943,6.270814926864097,-0.1465157005426917
2004,22.919905983325943,8.375658080089318,3.554272153270513,-1.5405405786483448
2005,26.671075712938453,5.316452038328896,2.884355930111939,-0.061510095245413954
2006,28.00802954366627,2.797731074256153,0.1371470468206133,-0.6519598538396356
2007,27.235749298583087,0.6415246180387554,-4.996184097850242,-5.374895738124374
2008,28.853236789525933,0.5266128698518915,-7.7324463758802535,-8.8561570096877
2009,32.12251559581794,2.9546830899777623,-6.250014727914132,-6.645555539308586
2010,30.33893665893741,3.650898403762543,-3.3069570263972543,-4.928642792278977
2011,23.208619184470653,-0.055814741358032105,-3.129118982814112,-7.452251901578924
2012,19.337752592718054,-0.7498640679573464,-2.948978318075141,-6.128899077823723
2013,20.577193875907287,4.197056286381857,0.6246303376048227,-0.09103771470011315
2014,19.83136730281431,7.944926671961121,3.9333885372448805,2.362301520221646
2015,16.16683131965361,7.871234211603307,3.9961239521863208,0.0895599633075676
2016,13.223935383206314,6.007400982624481,2.938424546134657,-2.1799312233126695
2017,11.794601453915869,5.568203031068847,2.1925342255607214,-2.9113970154217004
2018,10.22631705293506,6.986147120933472,0.5269811124578925,-2.813754786350756
2019,6.358380855717824,6.7812286684757,-1.9714532994417908,-1.0969616444195829
2020,1.4783959741937198,4.679385700968512,-4.775589327332447,1.505998383605573
2021,-1.411068619412351,3.2326251509342345,-5.489023539758612,3.5063228260314188
2022,-0.833325795464691,4.408195530887953,-2.3993787297244564,5.653701606190079
2023,3.124029958366317,7.061023755087313,1.138530819543253,7.454704627639303
2024,9.071716661159666,7.4551390998639455,1.9655632677862043,7.222747295532291
2025,14.445305130136669,5.6661721208598355,1.3696057989554045,4.799653191274174
2026,16.98369396615704,2.9044014014776374,0.33943605055138937,-0.1330617436992041
2027,17.13495384740587,-0.3418951161633085,-1.1605334909666192,-6.300751425542047
2028,18.053173308999465,-2.6941059957939593,-0.8442295550806609,-9.529841816671667
2029,21.080265983368264,-3.93013919081619,0.928810534065768,-8.651407044060367
2030,23.42337813407974,-3.920677367993689,0.9050554425466255,-6.995894679062419
2031,22.801562415167876,-3.0510796941376603,-0.06842065527087526,-7.374886195007298
2032,19.851419453412138,-2.731746084061319,-0.057927255891832785,-7.927892032739097
2033,16.78439001082649,-0.9534968363164916,0.2990405014458012,-5.693335072145658
2034,13.99646454420731,3.042124505005785,0.20309839514717098,-3.0620978796881655
2035,11.186679657313782,6.054495423278175,0.2074621775774006,-2.6036817730280784
2036,9.465390786507756,7.849020132035882,1.280236200080058,-2.408910108156597
2037,8.722940722753085,10.103002913560045,2.6057251938078516,-1.7960316077377108
2038,7.854357487536764,12.638207873812343,3.1640675859431044,-0.9925045186735892
2039,5.562648310335374,14.435853486187625,3.955886550749729,0.5316468788718172
2040,3.319833827066728,16.662033444171723,6.1151556148444755,3.1204347255559277
2041,3.609814001112907,18.36031986474736,7.512609386126342,6.35234183402755
2042,5.00636951535211,16.041771925924465,5.158040650587744,6.952025122666263
2043,5.962100184769614,10.515857557461223,0.5762665695895064,4.685555065338005
2044,8.012376130344729,5.56504224753406,-2.85922614819542,2.4438326766526295
2045,11.890763433560885,2.6801165910048472,-4.263250746029647,-0.4092484135437865
2046,14.521743508135868,-0.7457492511652779,-3.9613851062566274,-6.007150262059858
2047,15.57593296177904,-6.346688811770239,-3.594443793013119,-12.537054646857253
2048,18.38306747024261,-11.027466662364734,-3.2464026983561043,-15.109752939977712
2049,22.649719013343613,-11.536945874799978,-1.4281670400779853,-13.025883701370384
2050,24.841468466825802,-9.562231845040396,-0.42806184309535394,-9.222060923986474
2051,22.681882531813514,-8.30362050872764,-1.6661622768710969,-5.482184070759532
2052,16.810001948194344,-7.336018759830589,-2.2355701774731616,-2.348865626102595
2053,9.614529714602732,-5.496888572390605,-1.2866377014730306,-0.6947686113892333
2054,3.3238040855262856,-3.0983521060780306,-0.26041676536016334,-0.5099675033372494
2055,-0.016952251423898126,0.8039839876298617,1.7553597086781614,0.8500512125198365
2056,-0.830036815733034,4.841976145073404,4.226667254076745,3.896504051976199
2057,-2.021362802698606,5.824298569072303,4.534633841166586,6.366545016750905
2058,-3.1543371441546713,5.725842712620973,4.235437583903783,6.8024018470536145
2059,-2.7322031037897982,6.612060915563388,4.547079605674165,6.500778930431411
2060,-2.0234433409691226,7.206913588675535,4.73833330096383,7.898404777380565
2061,-1.4605113346947063,7.5342011811806335,6.2760580860305275,10.948276202452387
2062,-1.438142678474958,7.254756023546512,7.7234838038069,12.751919704782033
2063,-4.546697877113393,3.862602751814452,5.324934419620315,10.06913274260835
2064,-8.424455881936678,-1.5412938718389295,1.9315788515398482,4.836375103979705
2065,-5.826849396653512,-3.470890539129754,2.8638136627638473,2.2974597877381977
2066,3.8226889763589598,-1.1419494477971583,5.296793943420553,3.8405227505915924
2067,13.167428416247013,0.7915510733947718,5.206344251324267,5.435960159273704
2068,17.96782558515638,1.912909130747142,4.398024193393545,5.27527376643388
2069,18.911537300907,3.1588512938937474,3.4223127547868195,4.64080667633918
2070,16.645216468243063,1.6017455196488444,1.8815239436470752,1.4014243197068488
2071,13.001127641969859,-3.5459449337332134,0.24348744180765705,-5.7442938698378425
2072,10.879872528277302,-8.995808163586293,-1.194424798269674,-12.040367802953682
2073,9.610832183653052,-11.50799512465942,-0.9217299235546769,-13.171836451178013
2074,7.982836902287727,-9.880150221609735,0.7153853320747288,-10.750094464071523
2075,7.33353503935295,-6.134618058622344,3.0996153785664697,-6.409939271358332
2076,6.50769903521627,-2.8640339858972,4.2641613696797585,-2.044728736362494
2077,4.341077042383213,0.9216270382447825,2.640919641813796,-0.29831807648864894
2078,1.181126651509969,4.447936048689439,2.0704902440783597,0.29091831339361895
2079,-3.5134037154267945,6.230915371605985,3.215133165954157,2.3533786430704375
2080,-8.529403022842704,7.445255561734581,3.8775386319536613,4.507752992835512
2081,-11.445214990411667,7.94650184671221,4.809546446305265,5.570978452439477
2082,-12.08303618473989,7.4453472629708415,5.073765720707877,7.514573870988426
2083,-9.542064491690752,7.085884835317272,3.9062474090995116,9.507437141272119
2084,-3.9515144532933446,7.039583043523971,2.8599157289331107,8.654918983284945
2085,1.7517850400237072,5.639714163990961,2.1752134865803487,5.232476980018662
2086,6.961760365021783,2.713593371544778,1.364609078266868,0.7945018743383552
2087,10.575492233476023,-0.6901649538286737,-0.19166287456120046,-4.310038372978845
2088,12.059774687101749,-4.075502233356929,-1.5416168455982173,-8.489827330897327
2089,12.622992049588966,-6.085836659217523,-1.2336820442274332,-10.068473139280675
2090,11.044689792221662,-6.417159097424983,-0.25373286986858845,-10.1858550583107
2091,7.242500588978374,-6.397109918070418,-0.09848695046141215,-10.957662139227223
2092,3.3340203001811397,-6.4421716034992915,-0.02114484638873404,-11.909080754288995
2093,1.2423198037855445,-6.335299259013397,1.423145496166268,-10.779786275726023
2094,-0.6668883361485494,-5.996211025227558,1.7491209745541465,-7.946036513905315
2095,-3.258837357396816,-5.36453578932103,0.08533487376672738,-5.755071599137829
2096,-3.2678682158252235,-4.611357901626875,0.2930411233059688,-3.928031106459523
2097,-2.241488601662683,-4.359583142820703,1.1558191167292098,-1.7972856884006478
2098,-3.287256005585724,-4.381029623484381,-0.9288571742257264,-1.8951998182218204
2099,-4.68177050413752,-3.6067181434083433,-3.3642960169877973,-3.386527522713478
2100,-4.6175063332085005,-2.9614070150786076,-3.55407096350843,-2.4093728677988
2101,-4.971792130330019,-2.6303189464326575,-2.391041853594418,-0.11990010193958599
2102,-6.731821851240637,-0.8964812619742235,-1.0768867796932033,1.3675439228288755
2103,-8.394954861137139,1.11735955126607,-1.3395928355115616,1.9337093426084073
2104,-10.123174071921868,1.3154009407248264,-2.9281723784357667,3.1268355605508695
2105,-10.489442117223854,0.15093853547124628,-3.1839767745327565,6.764329568908992
2106,-6.874912809723719,-1.3956177732935269,-2.2751232526430933,9.429237765109075
2107,-1.3060860734979363,-2.6620490003309474,-1.9887492013794767,8.30487051729658
2108,3.887079130743168,-2.5913968712695583,-2.258254087062137,5.765663861071682
2109,7.357052222761006,-1.967075380031663,-2.502000472748683,2.285167345843536
2110,8.628802506473653,-1.543274703416045,-2.8420544938576677,-2.6100237704988642
2111,8.641685390832718,-0.9342273211625123,-4.44642457317723,-7.459437971103598
2112,6.539526300137673,-1.2315615789015084,-6.349452188293727,-11.778920757792031
2113,4.2072398164936295,-1.2006901766729425,-6.023022515602801,-13.56226410856265
2114,3.205108000522717,0.20494636342121453,-5.405913285993611,-12.285888283564054
2115,2.723513351612647,0.9901293607509133,-5.505114795769702,-9.61279642562531
2116,3.3988998470859393,1.545965677153418,-3.7767665489524287,-5.132673354773231
2117,3.1576397028836554,1.4941021909951033,-1.2864411765628168,-1.4166619613122786
2118,0.15866509756988922,0.3021501305720059,0.6997173912627763,0.9238512183701029
2119,-2.95764341787038,1.134178800479512,1.9220131008441301,5.500693748204079
2120,-5.212271613978536,3.396873627914656,1.2411839574613115,9.717753724192422
2121,-7.248718608412809,5.268725905143838,0.7585073491568234,10.83199365191696
2122,-7.249353359729629,7.357724112873773,1.0896510982535246,11.755346013719967
2123,-5.900021026676888,7.581897013451171,0.18140204627948064,12.924104811185844
2124,-5.11125726882089,4.55917197030566,-1.1808807387368616,12.756850768954784
2125,-2.6172721053062813,0.4392791958639173,-2.619773156921972,10.387003465869464
2126,1.712836022415383,-2.492685812627513,-4.228540186157462,5.690763444671781
2127,4.553219121322595,-4.798929754773402,-5.810938242577506,0.5869106396033661
2128,5.752131209325449,-6.611881824138943,-7.06365726081166,-3.027961033358842
2129,9.449587485935076,-5.294312486197142,-5.765327786247052,-3.902378519698496
2130,14.026130207215173,-3.3221485368951833,-2.944538074936521,-3.83324801624688
2131,14.282636305184592,-3.726859796413398,-1.232477591897097,-4.6823578955948415
2132,12.558890392904596,-2.583159090612516,-0.07430105744308987,-3.859505226511201
2133,10.287896977522601,0.37450278326757225,0.27533047262024585,-1.8252609076529271
2134,6.783062748131267,1.8354340065969756,0.11236004875598504,-0.7579299901412845
2135,3.808193451038983,2.6141330811704715,1.3031209743942334,0.7718256604968533
2136,1.6766686851897494,5.073436368570009,2.9247851003964174,3.715715695145662
2137,-0.3170322018514119,8.49188472976822,3.1645853598954976,6.859846222161622
2138,-2.2728325009985952,9.42002867112096,1.3576549841826497,9.590820729288641
2139,-2.9013532035707144,8.019462734062966,-0.23816025486650394,11.410468787954905
2140,-1.0730188563860945,6.991959889835341,0.2931518643750225,11.640745527176561
2141,1.337163896146184,5.92589897327378,0.41917776224740666,10.941980966540221
2142,1.5502461833111696,3.357697915760915,-0.10200458728714054,8.25820865307697
2143,0.6946771073122112,0.5513624067250729,0.23309950264064733,5.017790787641833
2144,1.699328361227811,-0.9699055266526456,1.2973053323195414,3.645415592515229
2145,2.8572110657383822,-2.5464086926325273,1.7839870020555262,2.0093051502601753
2146,2.899723144147339,-4.244665526322813,1.329725199776553,0.5084974782672513
2147,3.093964510145407,-4.764795200660022,1.672889739064537,0.3529094033927973
2148,2.175201536584443,-4.228863865392298,1.7356972773296686,-0.2919675263792418
2149,0.4132504511300106,-3.510683661867509,2.011455720155257,-2.7743813547171574
2150,0.19892383650925327,-2.164745939318458,4.4823962635947625,-6.242794825538487
2151,2.061391934108784,0.4797546169145325,6.19193851034424,-7.367927051372316
2152,4.833554619399127,3.4490503552837533,6.050646826258528,-5.498491798953261
2153,5.507344254672697,5.300131127708569,5.9681553930992175,-3.236255227056875
2154,2.836333213125179,4.6743832798662,5.72105280749638,-1.5561533295413637
2155,-0.4767753349303181,3.884449815024702,4.766765720995183,-0.4657489993495061
2156,-2.7359901545210055,5.532868510748477,4.66649496123979,0.19883555376946674
2157,-5.075857492090003,8.211052121279334,4.083704475328321,1.010061322930777
2158,-5.847766348955966,10.138298752235865,1.6061771649930143,3.2364150140306163
2159,-3.5387542936304146,9.239340573420376,0.6637571898756882,4.999181200324058
2160,-0.979726053475444,6.944017274387237,1.135624229774725,3.1023979208147368
2161,1.4706588707296615,6.767236068797595,1.424051290604098,0.4620841241188318
2162,3.238833282277615,6.894250406096644,1.7835348347020752,-0.20642066865518485
2163,2.4860166571951203,5.5726539231000745,1.115480682193476,-0.3156364144579503
2164,1.644417599501752,3.8841354646147837,-0.36639018914159854,0.6513874512688077
2165,1.6874746290380627,1.974603884438097,-2.0915785043929214,2.5642435374250008
2166,-0.016501704008575757,-1.7074529720297287,-4.386841626013558,3.1272101567473687
2167,-3.454336254607616,-6.775878970800277,-6.933571302111581,1.9482500243149832
2168,-6.185683521090637,-9.975531470418465,-8.756503454616965,-0.49112456981743957
2169,-6.512102300576708,-10.952351873119659,-8.057756143722788,-3.0201252571465558
2170,-5.541694037832708,-11.032606482778313,-5.112299777962534,-4.845183625219648
2171,-4.665162089473847,-8.934587991707678,-1.4682119349887943,-5.893867878863593
2172,-2.8897514743507218,-4.496765987382664,2.9767188102747455,-5.3970366951033695
2173,-0.5088964753766285,0.020320431584927023,6.963705316330944,-4.461412196361336
2174,1.0023698088250583,3.2153634299253664,7.858352792336764,-5.177964700118269
2175,0.371862169524784,4.5397191558772185,6.49484716834024,-7.025599221343021
2176,-3.050943271336223,4.083129692380794,5.598376960764715,-8.338358836871214
2177,-6.887814846252898,3.45049648191342,5.411235181435878,-7.996471258063803
2178,-7.664467531712395,4.78759446940964,5.016152247229703,-5.46438037335191
2179,-6.031968017651966,6.216970854158041,3.980222648810756,-1.5945638267977038
2180,-5.4583108648536784,4.09066053629644,1.774072965072283,1.9343557801507931
2181,-6.871691265272004,-0.24593786770435072,-2.622455583033406,4.318921248274284
2182,-8.658252393021202,-2.738589922567561,-7.0025467325938315,6.107720563354007
2183,-9.488671988978515,-2.6793968697408426,-8.392949866302569,8.143972566660572
2184,-9.582543072483134,-3.126170656314136,-8.953406180443748,9.620221747260963
2185,-9.557850503641351,-4.97316199977923,-9.856210158232514,9.13077572348613
2186,-9.417572463684255,-6.662874970270425,-9.880788773692075,7.746457691386763
2187,-8.65979359996923,-7.7001338945352975,-9.435790483822379,5.848296961428846
2188,-6.065938538826275,-7.060239845437898,-8.390394026171668,2.5623695834056566
2189,-0.7115553558514918,-4.3342726890527326,-5.520672343673943,0.05650209649071268
2190,4.509687950412181,-1.7696992664847777,-2.0467700723430626,-1.1212479873406864
2191,7.508571722940854,-1.7473383760697907,0.4275365633749828,-3.9728662122095497
2192,8.935919802797931,-3.622899770189923,1.8655933947588623,-7.954454405116141
2193,8.204830661605083,-4.046037759602707,2.18263410114509,-10.14243714283461
2194,6.3949675786315705,-1.7069162888938765,2.828175901389469,-9.708012571306845
2195,4.513490214338119,2.6251014529811725,3.5663933720799226,-6.793179094058473
2196,2.1775590081005483,6.281430073607338,3.0138455732558995,-4.236414026008218
2197,-0.9661315689622914,6.54857509063876,2.4336587131513157,-4.656186995373547
2198,-4.066357950746976,5.455435913248061,3.7547587235603936,-4.709433310358257
2199,-5.675059149506772,5.290181764947835,5.392093193256912,-1.9931752925794521
2200,-5.619134522493213,6.038603339398328,4.072375961232231,2.43040011957916
2201,-5.1821087989689225,5.666366490444031,-0.014715212317539222,6.2208684159874945
2202,-5.093460994520787,2.9973237767228644,-3.565897857134675,6.642791886831055
2203,-3.7559748275481426,0.47792773104163366,-3.6171127201391364,5.451888690755616
2204,-0.5098704128612366,-0.6363667099444683,-1.1813078064400682,5.536948391319113
2205,2.7144738332210046,-0.7145097155029859,1.2431831911452478,5.65101868267096
2206,4.490329106899744,-0.6296567262445264,2.4370668452623017,3.9213979710357187
2207,5.9323798337502405,-2.0596241776788946,1.4812042582094245,1.3392098701388973
2208,7.817950153996259,-4.373852822646867,0.04238274191927442,0.45769812024275724
2209,9.748276653132212,-5.904794105398746,-0.046632182296389456,0.5534258210628396
2210,11.847674763726548,-5.367624467555076,0.5493903691245503,0.042166455631627825
2211,12.084410024217556,-4.6430081805931565,0.5728519295212111,-0.8991528921821685
2212,9.335903728228143,-5.1628815571428905,0.4689306450837903,-2.4116630463908035
2213,6.998344818530349,-3.910235472706459,2.4426498923567244,-2.7850105905965115
2214,6.757017275852285,-0.8364584273335408,4.780189819131271,-2.4667516525262223
2215,6.571520925584239,1.7224556799388593,5.008394131306635,-2.920938798749894
2216,4.410805284393753,2.667814363134417,4.508372469956472,-3.8046603738938614
2217,1.4076967593552572,3.371376634283361,5.1780854999459995,-5.608319816537842
2218,-0.8989262321771035,4.304132687060963,6.97583603023247,-8.559195058198636
2219,-3.1066208118095022,4.5428472235197725,8.11428641831095,-12.454619127419896
2220,-4.177636128083384,4.897371453726012,9.103587642128444,-15.473254160372878
2221,-3.7875111248601305,5.020584403611402,10.585719984939486,-15.383038493699841
2222,-3.927036986845389,4.124281279958126,10.831748543630729,-11.260321602742684
2223,-4.484638097333041,3.082989620734965,9.754426304816798,-5.057243405591121
2224,-3.9991442352247293,2.204978944130542,8.174904249268042,-1.1976519648417827
2225,-1.518165121109628,0.9498475936827545,6.73297326197239,0.8695583573163662
2226,1.5371032129828435,-0.5889916093397171,5.369991042624136,2.791349189678736
2227,4.101539157887993,-1.7701538666311434,4.3533074943267165,2.808038910174748
2228,6.642678546758243,-1.8926098038342656,4.172492663608291,2.265535058272203
2229,9.431302999211091,-1.467337358648171,2.7459045707816068,2.7312823192447087
2230,13.342051328389545,-1.3910302725995267,-1.1387601797739724,2.786624014018245
2231,17.303781874060792,-1.065142089492699,-4.48122714125452,2.739752279075792
2232,19.460733045547112,0.23953752849921775,-5.968473740804468,3.388490104178873
2233,18.16490074716046,0.8329990333201466,-7.6920890682767435,3.515091368455501
2234,13.114210664546027,0.20118504213855495,-8.914940999164461,3.168127149178077
2235,6.6808721588290085,1.3508012062300956,-8.25665113042086,1.6645730259984115
2236,0.9605314706129795,3.8147376266996806,-6.856681046379175,-1.532128674767295
2237,-3.567437849757571,5.441188423049709,-4.677888351561421,-3.0228320860836155
2238,-7.88579355565701,6.723434513797405,-1.5772501925369216,-3.0507708906034043
2239,-12.540361056801315,6.5399160330630774,1.3600763496413133,-2.938459126257694
2240,-16.407637467877258,5.193397148303089,3.2665154026332943,-0.7302005948048421
2241,-17.795385679529865,6.128350357734846,3.436328859969148,3.244089774539933
2242,-17.506564937300077,7.758686264217104,2.725807070275537,5.972985632622029
2243,-17.973667679178643,5.904296098693145,1.5979963211602337,5.833279708283851
2244,-17.38688697731397,1.5313501635320426,-0.08732333807338355,5.26322972631682
2245,-13.74131710740467,-2.4094007212906385,-2.3351408936341502,5.919666065240501
2246,-8.652551196333267,-4.419108278764852,-5.1937839348377155,6.100952674624724
2247,-2.0285120838722728,-4.540346426203388,-7.385701824465938,5.272238774529233
2248,5.357579212173899,-3.291064745493914,-8.797901142176897,4.994956994563964
2249,10.17557352966234,-2.2401279030346175,-8.844481221508985,5.196967788643728
2250,12.593262818868029,-2.561912091450745,-7.229126013781625,4.830747466026669
2251,13.787528187271624,-3.069529586740211,-7.541228253193462,3.716469811915262
2252,12.809286649904225,-3.6562775065508673,-9.240963828948107,2.2577486475966584
2253,9.456241766448054,-5.634635943016463,-9.111766799990878,-0.6633776470677748
2254,6.208712454360674,-7.996719123243679,-8.304914670899317,-5.742481917747475
2255,5.451009070884022,-7.448103528548128,-5.935732853465921,-9.444358193396653
2256,5.672654431506029,-4.336928542692081,-1.1981539180860565,-9.972117143835607
2257,3.798522509018425,-2.8063155132033177,1.6421986068317724,-9.690519464387977
2258,-0.9593604437668932,-4.104017251282034,0.962385879605825,-9.847107185028728
2259,-6.8819643423414165,-5.532989141938522,0.1780994720672765,-9.104445881069552
2260,-10.769471182330218,-3.771846909480192,3.0878112737736316,-5.727616469586502
2261,-12.94381149613676,-0.9505655897829967,5.889445333217469,-1.9119213434392308
2262,-14.693974794873855,-0.3749835928600076,3.822776439286572,0.11948516486464332
2263,-14.261331346985472,0.04606336653872928,0.9234956739287339,1.9246038968587422
2264,-12.660337361236884,0.12475796046330179,-1.195095790254912,4.278701038595496
2265,-9.659757272174891,-1.3358160896789972,-2.916589767043716,6.539220638107212
2266,-5.115106347651127,-2.4172161896721596,-2.5356572726927045,7.09937576080071
2267,-1.675076136781617,-2.355114843438182,-1.0530445323765865,6.208192752612973
2268,-0.08070252527737956,-1.6270670761914827,-0.6906661708525877,5.025109653547216
2269,1.1098955408143758,0.5756130600697369,-0.7251197355470334,4.461358739848755
2270,3.4095603860908223,4.013185115982744,0.49144901459658186,6.204134576346201
2271,6.058567713170077,5.795589481732295,1.3683156009507125,8.339623004980282
2272,7.682546754133448,4.592702103012573,-0.43843850300941806,7.10182048715449
2273,8.049070443898277,1.9046331724012209,-3.220831373140673,2.5150307520486885
2274,8.200044648920088,-1.7190976604010406,-4.305721101196403,-2.6201374621201983
2275,7.85159136162823,-5.052120747282546,-3.3912382175401543,-6.390431021583978
2276,6.99410091721128,-6.302286972301055,-1.2091414805846012,-9.038475252584599
2277,7.452210606391912,-6.686328529286877,0.8420689103708411,-10.982340919240361
2278,6.647343784389692,-6.324623810819051,1.748880319132713,-11.327486746681242
2279,2.446477569538877,-4.253215424907529,1.5950247420664327,-10.233772587383438
2280,-0.9477061956669535,-0.810553631223816,2.5517544752386256,-8.321089912507578
2281,-3.31262461013612,2.3816671916382415,3.988716561182141,-4.892551092128443
2282,-7.483335069330335,3.669674475236043,3.655182478020545,-1.594070191813737
2283,-11.115150894078358,3.8375214362621226,1.9864926072638176,-0.014027819155955468
2284,-12.00834063075925,3.112469053280628,-0.08655176723827691,1.723508633951932
2285,-10.721370920186795,1.0971227005943045,-1.3036970976775404,4.644697315038543
2286,-6.586470709923456,-0.2107689708160828,-1.586121606630076,8.34698788445394
2287,0.11633213224449143,-1.399123802789257,-2.3153347667528923,10.383029214968019
2288,6.330072169179567,-4.234985513342057,-4.661489137963942,9.183226209153231
2289,10.084999805344177,-6.819660790331568,-7.334803119423726,6.830099931765227
2290,12.534485258717183,-7.9455577836469224,-7.825774513335893,6.376479300060218
2291,14.185692485397224,-8.397707953304884,-7.193597987448419,7.463439768584568
2292,13.184568397462623,-8.434108164295768,-6.590093006917124,6.024699791939171
2293,10.525521791604708,-6.594510153854381,-5.408813719054828,3.4937029489242755
2294,8.619402467024454,-2.917365083246061,-3.918203659196907,3.859913840184637
2295,6.573220431472762,0.6309427517493129,-2.303591653784081,4.738474289913749
2296,4.328985733514673,3.534202457203623,-0.40026414446505165,3.728777828135044
2297,4.254933280888979,5.522882767036537,1.9186216797742512,1.8427761195708345
2298,4.7942157933117215,6.358448756575858,3.4408174063077728,-1.455111668582778
2299,4.38785716492424,6.7329646467145725,4.921632734552977,-5.266937264313674
2300,3.8541789793950985,5.820661764910973,5.6439652243776655,-7.755280484550422
2301,1.785142613387767,2.9636573589285473,3.5607402873470453,-8.462912879423387
2302,-1.706513714434355,1.0039946707217235,2.061162770705982,-6.155110936573737
2303,-6.145201702571768,1.576229459421156,2.4192224640753572,-2.3794655082527982
2304,-11.02001538174674,3.225825215634593,2.298122523160104,-0.4860184129529833
2305,-13.274807656697265,5.3339051712844086,2.1106349653202505,1.3414685716534849
2306,-10.983046290028158,7.151763550107067,2.7426433565433976,5.224228990611919
2307,-6.744557148239411,6.89986222127432,2.531549846369655,8.56555800428112
2308,-2.893617069656505,4.733482368757109,1.6737305531864861,9.932167137171486
2309,2.7312365822340694,3.5716527200353507,2.637901567212808,9.92192107175232
2310,9.733092860204962,4.523186337169045,4.229935626308603,9.786753961958881
2311,14.577227229177417,4.6153094125908884,3.5175716658701357,10.536347698696392
2312,17.207154058180897,3.0993129103434316,1.1316111787727037,11.029001979976163
2313,18.50917779953425,2.041860847742724,-1.353642139897414,9.901641093604386
2314,16.773651848586482,0.7528757874954302,-3.925181306348403,7.388844929686786
2315,12.390262101781108,-2.1961486923128737,-5.890559220278357,2.6592307375371367
2316,8.520186017591946,-3.3431398199702373,-5.232149214428623,-2.2737797778165145
2317,4.567571944605869,-0.4870843294482369,-2.4904000035008966,-4.958451767980599
2318,-1.078158911751129,2.1973770801839234,-0.25513291747022526,-8.17606095764274
2319,-5.787494207714066,2.689370727842509,2.6422629605697345,-12.125290826894705
2320,-8.811245451107812,2.0204050361852985,7.736961607759341,-14.81444100200536
2321,-12.031492213412792,0.5472325244827281,11.769889406157576,-16.3500883200367
2322,-15.161908725935069,-0.8271346063736964,12.283440642940423,-17.31433210634475
2323,-16.87583123916394,-1.8004519771710903,12.568979969134123,-16.56536614223532
2324,-17.673973677913093,-3.0022310409330677,13.710618784938783,-13.387305443903788
2325,-19.257701691400488,-4.438928601061072,11.955793928104093,-9.672105218629037
2326,-19.698187166598373,-4.99346223808283,9.673854936786661,-6.284954624783397
2327,-17.480723742828154,-3.9724662574948035,8.969424929922525,-2.6687496841517233
2328,-14.891520891642338,-3.019304281270562,6.325545525619708,-1.0369836299656743
2329,-11.737515529455095,-4.461400375185415,2.489382897533437,-4.169039331192198
2330,-5.397093401803558,-5.9434405629146845,0.5561675473145774,-7.825320877347416
2331,2.303431223584086,-3.900652185324417,1.606155582109683,-7.2218850965804045
2332,6.482623278054567,-2.379546982169465,3.3429507924516,-5.888071755176848
2333,6.2885856914242195,-3.538817811885702,3.644886404572924,-6.083488739657202
2334,2.6199170962351013,-3.913703003539145,3.202762280882972,-5.9543411813497915
2335,-1.5640664505121737,-3.59387179231496,2.0481160385952566,-4.335730010647554
2336,-3.5173501905079236,-3.453959785262235,-0.36517870079806813,0.55444548011582
2337,-4.884147319398018,-1.8893092800590667,-2.4560001211560296,7.280681895710699
2338,-6.678061189673117,0.9089693057045111,-2.5069228537677257,11.30667126830241
2339,-9.00369222620939,2.3149504343265246,-2.3220198812691946,11.068799341336804
2340,-12.685314577848933,2.286220479932824,-4.045204691972635,7.504831185515735
2341,-16.605359821641727,1.0393198532484926,-6.251153485440371,2.6811483064302353
2342,-18.12160060506673,-1.3224046928866813,-5.722243995990834,-0.8191786839177616
2343,-17.502086985347937,-2.405933543214799,-3.6525900833903817,-2.69168143084033
2344,-16.76649611801198,-2.6659948765820687,-2.645320407218749,-2.953928447133308
2345,-14.867630027715618,-2.316924548539589,-1.4720072143563543,-1.5492366111887257
2346,-11.011872425125516,0.04324191707512364,-0.7775069403283055,0.20380203422031054
2347,-6.529741345973436,2.077477192842225,-1.0658749174856985,1.7508597847133083
2348,-1.7681730667972884,1.2928475512478257,-0.09058395909491268,3.263677024315109
2349,1.7941708702312107,-1.2619853138207309,0.9667877518413872,4.304693988135445
2350,3.426584090901813,-3.5690251381508493,0.5222231922835945,3.237721250603549
2351,6.570411242389856,-4.264247402005828,0.34467410347304506,1.09388569890403
2352,12.455911991940859,-3.299594453851079,0.8831480027588217,0.7824733303251098
2353,16.572895288224434,-2.9858687482687425,0.785634506385856,-0.13224789347303595
2354,18.847884301230994,-3.196390676184034,0.907550529666572,-1.604059378682215
2355,20.682031257604795,-2.6898452650675786,1.2216592649763003,-1.1680386553523299
2356,19.1846221217462,-1.7615411577760856,0.4031520304087569,-1.141945700828444
2357,16.261061232067913,0.5359492307967748,-0.32004418076203833,-0.5799246671874083
2358,13.246854711488254,2.56099977785142,-0.5863767417619201,1.5119498761313457
2359,8.018727146496282,2.902488027902923,-1.4990994053316427,3.175074013686634
2360,0.4572858289503858,3.3815038641173087,-3.038601694954776,3.9702750294064155
2361,-7.892518640948062,4.061844507584233,-3.311323863749105,4.660665425503595
2362,-14.560770499871749,4.05394232853146,-2.525474710535772,5.791050896021825
2363,-18.199949074161342,3.9657006945735813,-2.5467759943340464,6.590623822069962
2364,-18.880780354359782,4.504455566691679,-2.0402114212622986,6.55919664644725
2365,-18.109924400913098,5.1735913195864685,-0.909002395242924,4.331045289948538
2366,-16.513562621887715,5.129657219452035,-0.2687720891930934,0.28551071954224716
2367,-12.684356585474582,3.575591937131036,0.5954661849566683,-2.86093068507948
2368,-6.307452398718907,1.5552593547076456,2.1659429776780454,-3.8082063900867147
2369,1.114913220121194,2.0475916349497174,3.7314470758123135,-2.370590574553481
2370,7.511893124319868,3.46779078102329,4.323660350211866,-0.4089671216862916
2371,11.812575768723745,2.3138124537852343,4.234146287215292,-0.23189213077314952
2372,15.037548790601463,0.00808760283245552,3.5842421804666302,-1.1964804694130733
2373,17.54437302487487,-1.5978339165720297,1.9290151387746641,-1.8956988672970438
2374,18.545029632169687,-2.412007777880437,0.03537076057601199,-1.944084981577332
2375,18.272828250849642,-1.527106597979195,-0.8865729817953345,-1.4822445643394841
2376,16.64014783397275,0.17202908822685123,-1.1513307579531267,-1.8319253778710443
2377,13.165124082063375,0.7201589780734227,-1.5783620280362776,-2.5337444500380184
2378,9.484320979094402,1.209448829235445,-0.61852490558655,-0.6676153699055045
2379,6.1168667210470735,1.9514236516866397,0.6616345280391934,2.3505091948058427
2380,2.875576832952524,2.9501458515677856,0.7729166700833408,4.206990774007778
2381,1.0793719495541256,4.285966045447456,2.0440094638792488,6.534900171384884
2382,-0.03216358550259624,3.6775779712007144,2.7485201855652877,8.791313245800376
2383,-0.020775974413932877,2.5019110292163678,2.375852823905787,9.812161168228961
2384,1.3053323564913295,2.580843122756351,2.4286061066886755,9.270958636750343
2385,1.7076383020814976,2.697314813340489,0.7042469247639229,8.211532844022859
2386,0.5708377176617817,3.7955522947050406,-2.0676117246361674,7.990124275554808
2387,-0.896006631491604,6.142609089130349,-3.740125615441592,7.112932432997269
2388,-1.883233059735474,7.313896576319891,-4.8893405614897,5.940824348031899
2389,-3.774764159749493,7.086143388582647,-5.192253816705953,5.764170446977326
2390,-6.543913981984213,6.5880454224045195,-3.3259208122203137,5.624577783667399
2391,-8.976001315189908,5.030394902246224,-1.5675140095875788,4.785077517592679
2392,-9.18209483602945,3.9332754391540816,0.04108950413358037,5.857535717687642
2393,-6.386344396617141,4.3022925531034355,2.4888476482403723,8.149265421279171
2394,-4.061975163374578,2.824915136829055,2.0125575521038357,6.505142123375998
2395,-4.121460236706226,0.13072522485882146,-0.5961015141843544,2.660240889951421
2396,-5.7327029594154615,-2.6197567137162103,-2.324527526361476,-0.46477262233629135
2397,-6.615839895136205,-5.804141648809843,-2.8474367621871437,-2.804878769763462
2398,-6.095699629578058,-6.331467429388736,-2.6688477203559575,-3.1083618845070435
2399,-4.950738726577153,-4.12309738869285,-3.3291201396247394,-1.0037351022745447
2400,-3.6253076827871342,-2.751524385115914,-4.149361571774607,2.145171050838696
2401,-2.873862447265499,-3.3103226406099076,-3.2922957765130403,3.20448576681726
2402,-1.8017983509964177,-3.1964026412884876,-1.4515673409564305,1.7982166622305957
2403,0.7314614156884289,-1.393426885920205,0.42993419631229807,0.22379569816259948
2404,4.282252661002547,1.6436418326630868,1.2561613366711,-0.4088822999837818
2405,7.208426611597006,5.420233860172548,0.7341873716912309,-0.5032371533528259
2406,8.319716509705467,6.207654425543556,0.6393143893020972,-0.3660224415738116
2407,6.593178687670697,4.562297884152246,0.5188379016029615,0.06664329070141209
2408,3.0523433681528487,3.6927903560404003,0.05903583891308915,-0.2904696021625637
2409,-0.671683376000638,2.5922629002145805,-0.2227632863371889,-1.8416777642595075
2410,-4.646705205375132,1.2721007037201244,-1.002390564373948,-3.8066987050369265
2411,-8.454649575393386,0.347095008545673,-1.1921489275491506,-5.551558746741235
2412,-11.421340840844913,-1.1641803478994928,-0.043908531490238004,-6.487896070856806
2413,-13.067620741110005,-3.3928931291735998,0.9367776656837654,-7.056649802511925
2414,-11.79147378490336,-4.024230883066614,2.206427193737304,-6.252931661750615
2415,-7.393643062990621,-2.7326541417707095,4.105962431328485,-2.570068697858917
2416,-2.7968646460437516,-2.2925805919899274,3.5931863065457117,-0.6261675562694813
2417,1.456218624662484,-2.6308195020967875,1.0616654584433063,-1.8986017528713544
2418,5.546411154316012,-3.447362112222128,-0.23975198854103608,-2.9824729290847607
2419,8.355128619229426,-4.745296885854174,-0.9184975468870614,-3.6064054311306637
2420,9.749949648824566,-4.471171682353935,-1.9751415630544238,-2.808279573454378
2421,10.510220253697407,-2.57488190371927,-1.5365680594084898,-0.3706149566486626
2422,11.188230539126605,-1.0161688733140402,-0.3100078225866034,2.1427621517220263
2423,11.674748204912479,1.2796877680071443,-1.3071096925125425,4.329680747126702
2424,11.951592737962114,5.245923441684429,-3.0037411246265866,6.573249534951615
2425,11.729416477020852,8.790735841315145,-3.8564182180107194,8.890888555027697
2426,9.75535831374309,10.1098004950882,-5.484088819954552,9.342764749287387
2427,4.763348554096815,8.132211684231365,-5.741918883181757,6.155056349206423
2428,-1.4919830047901954,5.1696803513906096,-3.050273245290989,1.2651972850455957
2429,-7.334998654926547,2.8059255054485237,-1.3519287447910537,-4.009498895483505
2430,-11.345046825146927,0.7090369897163744,-1.7575251784758026,-8.05564790871928
2431,-11.61704694686763,-0.16119541887991162,-1.241214030248527,-8.37019508871667
2432,-10.495516199171487,-0.2888860306373028,-0.07154325583475948,-6.233698477914181
2433,-10.613931176004884,-1.798221904266691,-0.5861608085005423,-4.008863843766945
2434,-10.511960769932166,-4.624007326452263,-1.9580619322893917,-2.235807831656364
2435,-8.604144508289279,-6.165557834935478,-2.4974898301236954,0.15712791394752368
2436,-5.347461427785614,-7.659324432493076,-1.5743963221611315,2.0918645993435314
2437,-2.0843872943059893,-9.827646870257295,-0.5285343127451215,1.1177641081874878
2438,0.6844566191843305,-9.909951038170053,-1.544845778058289,-2.174437785990961
2439,4.275054915381216,-7.808597505561969,-2.2264185289913145,-3.7824712716950093
2440,7.937160982695548,-6.048600964404003,-1.2242019131007589,-3.0855096501838246
2441,8.988018916974646,-5.4632207844495815,-1.254060059028863,-3.786890446033216
2442,8.159429668344803,-4.624635896602979,-1.46414074514654,-5.935826877821885
2443,7.933465122705722,-2.9042653975672064,-0.6972468486966485,-6.685535922804997
2444,9.626923713067669,0.706021583120864,0.5178992326075509,-4.184484532060148
2445,12.169767823201635,5.393986291838873,2.010052403066383,0.1993454695969588
2446,11.963074422633758,7.543490424190483,1.7129598415107388,3.0042409673358264
2447,8.33418253648369,7.40334024705102,-0.021475332788290113,3.1487522106016224
2448,3.413082900236663,7.921935772662306,-1.1779230452635854,2.077552215468398
2449,-1.2971896266942915,8.904703831186174,-1.0580519545653853,0.37008225156419794
2450,-4.879473053716103,7.825747244535605,0.3787020704474809,-1.2452405130743782
2451,-8.317307333435927,3.900109766546073,0.5499667060407667,-2.451696712139114
2452,-11.271631811951695,-0.13955262509914776,-0.7671333920008371,-4.119698381085945
2453,-10.853988614484352,-0.4983075783271661,-0.04450499174653799,-3.8705341455056033
2454,-7.8393056101430005,1.8612597676062563,2.1618646851354004,-1.4851800697944786
2455,-6.33586218049035,3.5872660445119613,2.9535430265303764,0.010277347688367466
2456,-5.497387358200819,4.880102937696237,3.2860934485629425,1.6766916647191066
2457,-3.061074309516517,3.37489359166906,3.523997902144083,2.6617415631440724
2458,-1.2050791722351668,-2.249339403132141,2.455778838480879,1.6387133698241243
2459,0.028868809042819327,-6.830081182475345,0.9822561118661337,0.9027079274101681
2460,1.803270656305299,-8.49144522234751,0.7785023340104685,-0.7374227955019801
2461,4.404482707723149,-8.395110716221845,1.6724671917124192,-2.393118414385921
2462,7.8435731420722625,-6.422154836016659,1.9951597895627025,-1.2870612430387318
2463,9.200803009663044,-3.8765523421386545,1.591637790754036,-0.019654226317607326
2464,7.897999521753296,-1.8069393615948266,1.787763974874474,0.40728235896628223
2465,6.814312853022686,0.1980434914242225,2.94809761286277,1.3754884945716184
2466,6.204846687999168,1.7739970435790342,3.9005309281081653,1.912451128793295
2467,5.706062847636076,3.816187353960404,4.5292318421343465,2.8601303421110633
2468,6.564533407222127,7.918113530688881,6.115222951655201,5.424731977957278
2469,6.926078326204283,11.583144237460438,7.280734906076235,6.975288938285418
2470,3.897933062405259,12.448942543184705,5.975122973256705,5.753550448726553
2471,-1.0347945340081761,10.801498009373248,3.980504830211314,2.3719003557042884
2472,-4.4795472630556885,7.396928543489451,3.010408812392679,0.002674895284752038
2473,-5.31236904066784,5.130302065497728,2.2087298363363774,2.0823462744583168
2474,-5.074822294670894,4.7240765798517925,0.8983001518316623,5.118514394525391
2475,-5.426318626283218,2.4042639737525886,-0.7549851682546991,3.584309411885939
2476,-6.574220517660881,-1.4553525816345958,-1.799833360756,-0.40778819721049697
2477,-7.1610533009557695,-3.0167622131364906,-0.5429345488487658,-1.3061129573420263
2478,-5.277395015165536,-2.8636832310292535,2.470690254245205,0.5737220384751004
2479,-2.0611286855834394,-3.359337464548003,4.025812113088133,0.8540791519526525
2480,-0.47529382997474673,-5.701246015694451,3.0587803665100215,-1.1794496654619337
2481,0.592575626216008,-7.943351277045171,1.9690664156238928,-2.5608264339354987
2482,2.704774043223525,-8.405216495247448,2.1827067101750517,-1.8776268239254676
2483,4.793614887191105,-8.273055303380824,3.2806377733865917,-0.11990190230234227
2484,5.8799473566881675,-6.922730507844735,4.3415682320599345,1.0784606639469811
2485,4.957866768418039,-5.244540745437602,3.4919338056413602,0.8516387354416971
2486,3.7458843493198892,-4.43453234483351,1.1535750145020356,0.07650955850600578
2487,4.183716023188151,-3.721466091031819,-0.26710669686084776,-0.769464177336704
2488,4.263141275644484,-2.7314181494050334,-1.5092288246993728,-2.097086568751091
2489,2.300701119837679,-1.2646080029520632,-2.7571067612243385,-4.31366435734414
2490,-2.8420252871322376,-1.0878461676636577,-3.4114882054406617,-8.517652901581268
2491,-9.258738405987554,-1.930463753446333,-3.9727652464935304,-12.521092781572634
2492,-10.978037067214176,-1.1095094000188586,-3.5293279957605126,-11.573852067039782
2493,-8.609404176588036,1.5655604078476983,-2.0533544704230646,-6.989913530286896
2494,-6.589740579441773,4.143000326195059,0.4242374352816983,-2.550272369086949
2495,-5.104579318794302,4.2273119950000195,1.7685107791768393,2.036618245582624
2496,-3.8710077272171093,1.9327801244242306,0.2717982595096937,5.625023890593435
2497,-2.601316228632929,-0.7683726869845244,-1.654699745656834,5.2670057594743795
2498,-0.4399877844255976,-2.4228011210751608,-2.1361127927180417,2.231643187721839
2499,1.155219377423155,-3.3039094092995707,-2.022283690210667,-0.4880660341092995
2500,1.3143659101213656,-6.03589081866742,-2.730761987417371,-2.9750779921315123
2501,1.7212038458149135,-10.182708439542658,-2.951476157742731,-4.5064254021616765
2502,1.517460142340715,-13.004730202386396,-2.39510745972544,-4.200440127435618
2503,-0.2729264216231895,-13.164011580186784,-1.763067208354965,-3.7288289114807265
2504,-1.95251565937246,-10.35112957311495,-1.2972856818832386,-3.5108341189490244
2505,-3.008437647679087,-7.1194735290822,-1.4579613814034345,-3.89712964275968
2506,-3.800473671217838,-5.498565582711445,-2.1925180765535304,-4.189916575458905
2507,-1.6951187879711374,-3.5795346963893073,-1.9094982966938405,-1.436684872402933
2508,4.671092167444676,0.2069812911400602,0.607728618562801,2.338660408113878
2509,9.586072674453844,3.09647143563879,1.6599494537859518,1.8400141659877645
2510,10.176647187822773,4.0384863113912255,0.310021999046253,-0.8775460355751639
2511,7.586240159385402,5.035603602536072,-0.10772449889587835,-1.8036068558380085
2512,1.833583992669162,5.22732607125792,-0.20020934784729702,-1.2607752128573853
2513,-3.8662304996987773,4.122887681372659,-1.5276870105502793,-0.30468994497624546
2514,-6.332689716087693,3.529691008236631,-2.6080724968512556,0.8772381196506127
2515,-7.088758845399247,2.476329223099782,-2.8551572489407473,0.8797147102786365
2516,-7.461836882362127,-0.9217954930757395,-4.218293404152924,-3.0270765318135218
2517,-5.970710937656687,-4.687547485664952,-5.395913246872443,-7.106245576745821
2518,-3.118879875985135,-6.427491996811179,-3.0455752230395365,-7.300725589232326
2519,-0.5041494158657933,-6.398062114430546,0.35054648193757104,-4.981088683085244
2520,1.5772893377931523,-6.702704597387894,2.136138144977721,-2.2484163368989676
2521,1.4591559183020169,-8.10718512127545,4.045015141625303,0.2028227957440527
2522,-1.5799398983636437,-7.801479852536335,5.151872261212198,3.850313656928581
2523,-3.618489597647044,-4.1099954967658086,3.562559218236689,7.893914655826764
2524,-3.2999016777585943,-1.0882389476417829,1.7664201968012812,10.091706628379441
2525,-3.1347724201427916,-2.0213837434119317,1.2012617313517842,9.218634997922747
2526,-1.9121544421419365,-3.671783192649788,-0.0861836114964016,6.210615888909765
2527,0.1265113418125448,-3.6013151887911605,-1.2333729583310846,2.727805783264854
2528,1.2505508797677132,-1.8466037487192382,0.40970228469862724,-0.4599361846024166
2529,3.7702831525753115,2.3521866929861774,3.903844712685521,-1.2910783758119926
2530,6.427932807251062,6.729554721638667,5.837718741725868,-1.2444812670001704
2531,6.179556300822792,7.0030457873248135,5.480296367161284,-3.3506484377574886
2532,3.3949462244015,4.263235348514932,4.453284857412629,-5.411928581192994
2533,0.5943636458065653,3.07834018861531,3.7009301885555352,-6.34701926848099
2534,0.2974819297603459,3.4048883189167114,3.364712151654481,-7.424092956983423
2535,1.002089030421998,3.7798804652590707,2.064320189663522,-8.396155192401718
2536,1.7490577168725807,2.8345487344018188,-0.8257754583429766,-8.949508109996003
2537,3.8253250301062383,0.883663664022949,-3.008935371329708,-7.6428839895847265
2538,6.104860116214476,1.2073000653648454,-2.9806348086190515,-4.327544989251317
2539,6.336829887239592,2.4988574378346273,-3.302466633116126,-0.9978692817167517
2540,4.39933735714918,2.617672124801596,-5.898227731699375,2.3583096393049563
2541,0.31625922942786117,2.0179814149597295,-7.647087115406797,6.319191332475106
2542,-4.844410925970526,0.7067846702764111,-6.729375478487999,9.343372594414856
2543,-7.596547474965358,0.02015896338122479,-5.333451184446709,11.202984206225263
2544,-7.668892087198821,1.952508010018006,-4.551262277054938,13.602937796049195
2545,-7.758944172676309,4.865101759443348,-4.069658570471192,15.816805516369419
2546,-7.208708471414147,5.642400049363681,-2.6931574652594357,15.059438262689575
2547,-4.692558652462807,5.649817441504103,0.18726455353750232,10.9641797668704
2548,-0.6043671353615433,6.918828616682218,2.788854006681936,6.576719366458048
2549,4.812043731311454,7.828274399764527,2.872970182449909,3.2692436283457487
2550,12.298235497209149,10.009086796860302,2.538643680941645,2.938152907537668
2551,18.128564873070744,12.397787113105158,3.482311155677896,5.4983673649272875
2552,17.027362984773227,10.173587041603922,2.8800101594117917,5.965275574886458
2553,14.210753020492326,6.149633929002539,0.18756173045725277,4.205308906259145
2554,12.006795775147959,1.5353999103073015,-4.2332624106957315,0.6833710216465629
2555,9.46065074219153,-4.267431195424003,-7.279247858515135,-3.653499182040866
2556,9.29316379556214,-7.353593720448646,-6.499386169839803,-3.683409315398101
2557,10.406430135213258,-5.8602936815401465,-4.441965233752775,0.29445287761600175
2558,11.141894683274288,-3.1206027598721398,-3.10539799212771,3.5097433489427643
2559,10.538443623270199,-0.803671693245806,-2.0906454951281592,5.13496738006091
2560,7.838420113401115,1.762735284677492,-0.8404567343504382,7.052485351424765
2561,4.27490747880683,2.974625073914917,0.260621015116388,9.374618705658778
2562,0.7302472911180918,2.892014945055641,1.4464169531281872,9.814656052684388
2563,-3.490250242878381,1.4250251709587813,1.6698769761821775,6.983254772949624
2564,-5.394373869072392,-0.07372116709681392,1.2791285735358249,2.928853734489528
2565,-4.7071342298041206,0.7740753276774098,2.020219816838525,-1.0651958338965086
2566,-4.93374179101923,1.9860610506284524,3.709231377288265,-3.7090189654259285
2567,-3.356479259369672,1.9877326655685288,5.284126023767509,-3.9010417736849115
2568,0.7839276120143308,1.2705009588969158,5.86112535102682,-4.461485870706938
2569,3.886056188962483,-0.6772014563348772,5.084985939786948,-8.051281713533156
2570,6.390534228893875,-3.839533512729253,3.508969974001325,-13.289886426578047
2571,9.434742927681809,-6.795108102626764,2.349943946613351,-15.301908180871996
2572,10.876352543678589,-8.705648430636343,2.3754644105915714,-12.514130222836043
2573,9.195335879268516,-9.057208743637963,3.8645861632761473,-9.040775131354174
2574,5.9078053310602705,-8.10874836313574,4.697466419269623,-7.240301973846808
2575,1.8428055901396552,-6.412854740636344,2.566631299259998,-6.1146933165432875
2576,-1.9571785731315618,-3.836695165302284,-0.8241263999118236,-3.8521244527803007
2577,-4.619207336235885,-1.5306619863939444,-4.051447372851607,0.21724403070782689
2578,-8.424802847396025,-1.3174775073599092,-7.164799738754669,4.066600653732297
2579,-12.523933669563148,-2.498442978724206,-8.471782985225326,5.918620928286724
2580,-13.906623778149072,-2.853808659629884,-7.718023761060546,6.706253641558086
2581,-14.328227567015565,-1.7716150661873469,-6.205842662052134,6.9648988101925475
2582,-15.599712199668788,-0.3668091452508316,-4.882919121448937,5.379517930691216
2583,-15.241191053066787,0.615659664725984,-2.536490152301132,2.5496511612663
2584,-12.687601364300956,0.9618348673639887,1.2945177404982706,0.49647399981517987
2585,-10.008400862669173,0.7075371125664398,3.308849931669238,-0.27079540506178756
2586,-6.1209648944584565,1.782980909733174,4.450911404634185,-0.3490872773783106
2587,-2.215735871799248,4.16464084660292,5.705250024987226,-1.3059823228178173
2588,-0.9250010960564466,4.7724212316663035,5.361002273238169,-3.5038637909598256
2589,0.06537375136924456,2.787245552170006,3.5046195674899296,-6.41693598618483
2590,1.9964400006283067,0.4255861382583277,0.7171656627950819,-9.082942997045386
2591,4.466402598420693,-0.15134311507668266,-0.3687348123677067,-9.316890046692281
2592,5.761618508353474,0.5307098371467208,-0.578603642455379,-7.660894174083766
2593,5.0511197570757815,1.177084380112636,-1.9593837530091873,-4.8106267573033925
2594,4.013281739076123,1.4647699420403641,-2.6716321535860024,-0.5127429648354762
2595,3.260530981539466,2.2929753658149523,-3.6415979533150167,3.5340879523307285
2596,1.8647521300981633,3.89760529285953,-6.127344837063022,5.959671959509656
2597,-1.699970936940613,3.2956102516146704,-9.52192673307178,6.235564641704098
2598,-4.511370743295227,0.8156822145221737,-11.094077517075153,6.195914037380732
2599,-5.997393094605064,-0.6966775183954818,-10.06442421484153,6.799568970817902
2600,-7.772564829755119,-1.0903937965887975,-9.21066537490111,5.415074091702406
2601,-7.568349002620476,-0.7547604482844179,-7.635605351634096,2.984324144077884
2602,-6.825168660389736,-0.4499619242740296,-5.528313547711567,1.0072345301694432
2603,-6.481745052539928,-0.9390130943471215,-3.5305988636986663,-1.5627561750063492
2604,-4.067766918318764,-0.9391819408268675,0.2816482463030835,-2.7578396726036702
2605,-0.790102525406795,0.3084446321730489,3.688826885911907,-2.295009301993975
2606,2.048265121634731,2.584394242311045,4.728238417995064,-0.3071374544257063
2607,5.111536393701847,4.407526731168219,5.942530004677516,2.518914771295581
2608,6.9695163799261834,3.827181078514753,7.025576060940694,1.5366111672753502
2609,7.514515781423425,3.631913399177256,6.906323959569387,-1.4141743457823435
2610,7.926578808098513,4.425371960466781,6.0874420314011735,-2.719225184458113
2611,8.05031855955099,3.967836983597959,3.6083904165315515,-3.5239835622455518
2612,6.531014387593576,2.5949965403512256,0.19869516683792127,-4.74848139069285
2613,4.734383382813675,0.5655234821929762,-1.4849279752388684,-5.103295393366556
2614,5.863900360731375,-1.0552290632379775,-2.098551705917166,-2.681849327550678
2615,6.74499657131344,-0.9979089932856084,-3.234443830868724,0.6160939811226869
2616,4.439280640869479,-0.3802391652310368,-3.684289361200205,2.8824148970803685
2617,0.875504495505867,0.04017894682875335,-3.022130489665525,5.322551843685131
2618,-3.402556153105119,-0.2833191845768177,-3.7048090286509843,8.127991421307236
2619,-7.739135469923598,-1.2142564184811793,-6.328284446042353,10.311542285300598
2620,-10.816606890900905,-1.143213103993117,-7.4021332971470715,11.622408112614877
2621,-11.529103639435135,-1.1451822525153357,-5.717887308083727,12.138372385527457
2622,-9.383342002030194,-2.8266962507605524,-3.4057820873147513,11.824155791936123
2623,-5.912959398048821,-4.647060670375355,-2.6271279019601526,9.379360754600263
2624,-1.3216017006460385,-4.153073981175206,-2.0786455372430557,6.270678340634932
2625,3.6322431422500876,-1.4118832210881371,0.984364875333226,5.133880581837171
2626,6.3579074526596475,0.8291832615900606,5.160392478991787,4.331897146593176
2627,7.038662626941931,1.9405875542381064,7.823165590684808,3.34985241046169
2628,7.517913597661524,2.971805369798837,8.952418718971972,1.1788448938010576
2629,7.315805217572425,2.178288039625373,9.056443805883564,-2.691710726180208
2630,6.599153862976775,0.3649601187037377,9.038558620467517,-4.831834245836229
2631,5.102374469800227,-0.9221867149089086,7.933496169370842,-4.532061322717334
2632,2.26686252620341,-3.440540024744965,4.739188936730985,-4.41820325873042
2633,0.7721360575054108,-6.233987603962585,2.395965614270424,-6.473573340033335
2634,1.7826959796822661,-6.162070818378902,2.242520241032989,-7.106666322595734
2635,3.433586143262812,-3.4293005165489823,2.9374152304803127,-4.802580656188557
2636,3.9033281635414574,-2.2238139976745113,2.5666177314374115,-3.93563265659455
2637,3.9378217521353545,-2.3054117849230726,1.605439385606891,-2.527382644314549
2638,3.5773598926958208,-1.8521044721098436,1.2022088025197788,-0.3305697224630739
2639,1.5240169173082607,-3.2130390988677284,-0.2618827523133497,-0.9505793958423391
2640,-2.0306785785559267,-4.904108965753233,-2.584584122158194,-1.151883307697537
2641,-6.848383478064936,-5.144743414087691,-4.206461662795078,0.2011479597908551
2642,-11.579304229227585,-4.75940540409128,-4.458374662216706,0.9823569212981347
2643,-13.911846028806396,-3.3440204309136563,-2.227821116144317,1.5825136755193783
2644,-15.290442287836125,-2.1967549759347937,0.5055023332282499,0.5906393888855725
2645,-17.595780498291845,-0.7660684038293477,2.4266272821235892,-0.7159883722371306
2646,-18.546169649545867,2.691800555869171,5.36450980138994,-0.5533900978678339
2647,-16.463570559272256,5.759633143337227,8.742707522122824,-1.3735368130317471
2648,-11.997286755321884,6.379043117216665,10.60308123712594,-4.099131583340158
2649,-6.348770501570142,4.7425310886995184,10.536054711201329,-8.331427630097432
2650,-0.4243738293212073,1.4103757703289637,9.428458062389215,-12.175499042100737
2651,4.849107726965891,-2.803071828143964,7.53168321392244,-12.931642521009277
2652,7.410283727441674,-6.628659664865668,5.08517898781376,-10.115442086597543
2653,7.190587239622878,-8.368856661161619,2.30200452909988,-6.934028513863441
2654,7.708689603255234,-7.411303668206863,-0.36313910645676994,-4.475481209922723
2655,9.472289567702143,-5.484434415468974,-2.2848831543745827,-0.8687052754597693
2656,9.563714945583476,-4.048467841378615,-4.185270494565559,1.5169613497216365
2657,7.668590769762323,-3.663384541961654,-6.27137744542995,1.332302356080592
2658,5.893814055475383,-4.007362507334444,-7.551573306719213,0.31300002362194723
2659,5.291099956915681,-3.765608394730668,-6.996306388593736,-0.029344489884003448
2660,4.1138341597333,-3.1573402642637096,-5.18104351170266,0.43553351177381794
2661,1.5975998252844197,-2.170689046700462,-4.907570695162021,0.21788573376777728
2662,-1.0473603567846836,0.28017425740479013,-5.017245535272804,-0.816785109245352
2663,-3.3367920621546125,4.50940875612011,-2.6489264193659143,-2.0461493142632334
2664,-5.999455016688641,9.090518076809285,-0.11961486319747655,-2.835545696753813
2665,-10.349312974444318,10.283094750700771,-0.6879896148575709,-3.66633656912022
2666,-15.276614412357354,6.895234810325972,-3.3516876319817124,-3.684432009600476
2667,-18.28752812484268,2.883050397213865,-5.025779744206713,-1.9322275409768541
2668,-17.471777494034104,-0.7618509546363373,-4.5689596303826185,-0.8303485548194341
2669,-11.97881350629054,-3.6763292810362844,-3.731391930990532,-0.8019426211355745
2670,-5.467620489042913,-3.4965419136293416,-3.784699273087093,0.21706387425713564
2671,-1.7410338239738667,-3.235601423047843,-2.5404486531080988,1.2865208594844058
2672,1.448862798593068,-4.508919941480409,-1.5570158721460212,-0.754330813945857
2673,5.952475680256759,-5.622143353798247,-2.404747697335201,-2.7264469761869474
2674,10.344250058598737,-5.9526621372700665,-2.2576153410658306,-0.942662915512849
2675,13.457894058254409,-5.144344713363427,-2.6730207197358475,0.4535618480417348
2676,14.356472437120818,-3.7990912460160207,-5.155303609924228,0.12547804782008132
2677,14.02607439506676,-1.2829996725690056,-6.055782790223224,1.276744121894406
2678,12.891467019648344,1.2655548437652435,-4.314605492160943,2.706299075956338
2679,9.98856364260808,3.1124074870976157,-3.0908634723653234,3.4920978450817883
2680,6.6468495675372665,4.988546368184507,-3.311228955843678,5.332674687889465
2681,3.317352667508911,7.252361416196167,-2.818328761271805,6.352086814408323
2682,-0.997946430494894,10.861404145958602,-1.7139735405876504,5.293045545145286
2683,-6.27969209762413,12.317478037505737,-1.2913667591743754,2.5814267318229644
2684,-9.438709383682578,11.242904378958142,1.340078075386264,-1.1114823478333096
2685,-10.855750709142258,10.301185654718969,6.473846626758271,-4.693630494702403
2686,-15.028666190900658,7.2397241578563865,9.383583746626584,-8.8177829833123
2687,-19.431255632500836,3.2666855075353496,9.668652764146401,-11.40921058631532
2688,-22.623023993075698,1.2702184178991727,9.184453760346136,-9.458837182581936
2689,-24.727791068581134,-0.17604094795657757,8.11336936091872,-4.344779905347433
2690,-22.201240563714933,-2.010635168961836,6.448365737317702,0.24381102106682237
2691,-16.02418139399455,-3.4472912104750177,3.3968986346180183,3.312901836819224
2692,-8.245008966785559,-3.2390531463531285,0.001623042149225637,6.793402269232821
2693,0.0399671365032081,-2.7230281549212867,-2.5165202068099566,9.652506129210858
2694,6.444561551937274,-3.93213949252019,-4.506756410996652,9.920559542692015
2695,11.939542633392817,-5.561316499994564,-5.595107428546561,7.069188122198128
2696,17.889830675048053,-5.395044905619581,-5.806351857961427,2.041256569193323
2697,21.381512559900813,-4.6322161857078115,-5.640133082611264,-2.4228199481410924
2698,21.31335394914426,-4.512497427811887,-5.037923674714259,-4.8344971736827
2699,19.580024312957953,-3.2996078776038487,-2.9601054061684184,-5.941717940224544
2700,16.7780901678816,-1.7138186143312406,-0.11488287812857703,-6.199929356613109
2701,12.713062313281148,-0.23410675849717918,2.0003856026537306,-4.250280338123477
2702,6.505974091074033,1.746010249034507,3.721701265244547,-1.5452990800969304
2703,-0.36582581202747055,4.069052139095969,5.235745177707136,1.2959036176094152
2704,-4.137124450199029,6.560389596594218,6.881062483712665,5.051795033946435
2705,-5.6883921635569905,7.955649311141113,9.576495522202787,5.590578667533071
2706,-8.05184770723289,7.667692649292904,12.59093700488953,1.3664370542264703
2707,-11.507756919391342,6.283625051379847,13.619335534906618,-1.647142778189891
2708,-14.488181176796532,5.5276435330228635,12.869330637888037,0.9327961711919546
2709,-14.800679194488438,6.3146468556512545,11.618036163709892,5.388714211279798
2710,-14.563057595734906,4.88995758361587,8.382072733284112,6.349946424485307
2711,-17.090446516409646,-1.2811842643186704,2.7020434031003115,3.4133600597775517
2712,-19.88077525746324,-8.996744424530958,-2.581198102276663,-0.3889160607968791
2713,-19.170893521602007,-14.401993310516042,-5.511624893810911,-2.7966222366911255
2714,-15.61490708763141,-15.262182272699466,-6.17391376555082,-3.4997363039847658
2715,-9.70440313561452,-11.946895881650493,-5.007911537916218,-1.3383563594922985
2716,-0.8137438979197993,-6.593705644152703,-2.7464610233708324,3.164651273253932
2717,7.94548208785897,-1.4375811662160076,-1.4010839168773384,5.8836408604612735
2718,15.119280424460875,2.081411118647134,-1.6098793261908269,5.090662236413567
2719,21.079639032824666,3.637846040886003,-1.8706483985885094,2.911745619450169
2720,23.915812421595348,3.3988317225402,-3.054290230117107,1.886228584950905
2721,24.096354609081086,3.649857989714862,-4.389719735368553,2.008573163318329
2722,23.888579691732996,5.9351831824447725,-5.06316458623196,0.9800112112879354
2723,22.311218973238745,6.7960685386388215,-6.857530483277958,-2.1642995257669972
2724,19.035047802768485,4.996883611014999,-5.777051912030619,-6.122766804900505
2725,15.444523577525235,4.151293974908006,-0.48998134405434235,-9.641011361772842
2726,11.583387355941644,4.433434245099346,3.822440346332603,-11.01335820109106
2727,7.062834828677692,4.51112662818705,6.4487758447493535,-9.360958726573408
2728,1.358047817523331,4.554447587663728,7.3970536469597326,-6.672043562991091
2729,-4.696516212780246,3.81335615393168,5.896988275525576,-4.6076478173593625
2730,-8.669625128833939,2.4823506883556568,4.449118001629017,-3.00741121870667
2731,-9.65455841869248,1.561166263723428,4.524456788656663,-0.2315068685734962
2732,-9.935959360149065,-0.12271930698309072,4.514019005605196,2.0688011355730325
2733,-10.591008871073868,-2.5391127368518887,2.9145564725597763,1.5335827283840442
2734,-10.149341757298192,-3.137438105545309,0.8156998069882302,1.3695833798481372
2735,-8.21342906386773,-1.8876660140813424,0.06251325307542367,1.6643311389618518
2736,-4.742619463094189,-0.5879619698496705,-0.016673693954126635,0.4012020944688475
2737,-0.1667937903683632,0.29131268419741496,0.06799602043923768,0.8178904416838926
2738,4.423710602805402,1.844372498086108,0.3231952647340301,3.4499858043797897
2739,8.56566223162411,3.877075042960057,-0.8714225517103316,4.255393477266785
2740,10.581028183389005,4.006509233492046,-2.7549517783115682,2.2731351744033517
2741,10.765972736069019,2.154904394872877,-4.151128425785916,0.35300485471342435
2742,10.883132517979691,-0.4944690892993753,-5.356116983940163,-0.49201627486698474
2743,10.069087702244095,-2.457894518663073,-4.844119873937229,-2.653759472377019
2744,9.012508891508588,-1.0367990594379841,-3.3538336647398976,-4.578891779974543
2745,7.704721783668774,2.3107928736826886,-3.696789535907101,-4.428675988883554
2746,5.1527148737507495,4.373954358365144,-4.258012721510761,-4.740839536808177
2747,3.552381792979511,6.774939336774729,-2.897203123696912,-4.289645530886628
2748,3.4409550440837657,10.402039582874972,-0.9447514894968863,-2.6700828837078507
2749,2.854017772926039,12.191668550440731,0.8225570894606238,-2.3758829748803936
2750,0.2528972542266573,11.170379127501398,1.1119292644626582,-2.394623741060304
2751,-4.023212054983418,8.640861007397453,-0.5266059640737814,-1.513512515632368
2752,-7.582260205013873,6.167336827211214,-1.644844847442611,-0.6450407836653567
2753,-9.74886259255431,4.2938832889532685,-1.579372156500662,0.2074634794653043
2754,-12.398771237003956,1.9077763470357767,-2.2311703013006445,0.9141905153250681
2755,-14.500088675305562,0.10764855813830518,-4.008747173972006,1.6036536352560236
2756,-12.583119956798594,-0.08143834433139566,-4.866690258903915,4.295876356285352
2757,-7.17662496421825,-0.08968032684791294,-4.164827524141424,8.033830470087988
2758,-0.6118080596874559,-0.7975027389028368,-2.7520659647422523,9.495636948897944
2759,5.148164166316284,-1.644653841843833,-1.8713619885824244,8.065122366814421
2760,8.026312437125569,-2.0428512651792565,-3.1995763771194796,6.68495406824393
2761,8.748507405999469,-2.560904562297496,-5.171422755550835,7.5587021923251205
2762,8.794268148800487,-2.9280980889644224,-5.384673720363307,7.6531935901355
2763,9.059046838146514,-2.67292470481552,-4.785686381265537,4.3989134382967885
2764,9.461538670231434,-1.979518828345368,-4.799566657346807,1.17918571760299
2765,8.394408980587947,-0.7136080330698333,-5.359871897192938,0.26855513657898356
2766,6.34311253331708,-0.16711735313153023,-5.525524528480201,-0.6144637768018331
2767,3.9472645401037187,-1.6639201868271827,-5.146553339521043,-3.61416820958412
2768,1.6540033702877026,-3.8087810490506167,-3.587454387780266,-6.939986323860529
2769,0.6923885244302439,-4.7860543657082,-1.29774013304745,-7.179898595070415
2770,-0.47085765254805906,-4.254764220645269,-0.8594309931311557,-5.350962151387119
2771,-3.2614575836675868,-2.556767767543991,-1.1103100489257978,-5.278455633439206
2772,-6.453203547564793,-1.4497442079019975,-0.036216639537989447,-7.250719951795072
2773,-9.12567550918914,-2.5038310916354023,2.277113127794529,-7.934930696469009
2774,-10.843575816152786,-3.373071525961776,5.086219768565251,-5.999493690773151
2775,-10.816383730492976,-3.195265993899941,6.623133282290566,-2.816230551723401
2776,-7.334680206996186,-4.415875312480904,7.211856639755013,-0.5829859023920076
2777,-0.3184672682036945,-5.840326397093609,7.927121874097508,0.7780942792983037
2778,6.417178270165364,-5.386450732125938,7.959719278922355,3.4737838785834803
2779,11.13048392217907,-3.8121457245148327,6.578817219642831,7.417201235834698
2780,14.28012460149288,-2.1725285643189376,3.875692403842297,10.628478086448652
2781,14.564803805504711,-0.6516331138301322,0.8810240706794141,12.5277774271347
2782,13.422299273407242,0.8875120558544153,-0.37917407661998637,13.836917163490421
2783,13.181778075152828,2.57586463591038,-1.074747576659066,13.776431618791046
2784,13.189252161027557,4.34934261417233,-3.0625090287161627,11.810298319558107
2785,13.031081732004616,5.71412529627389,-4.818692901265942,9.250059577193847
2786,12.279704005671864,6.755514269998285,-5.5379383120327645,6.709361868635118
2787,10.104029724506198,7.568453491342701,-4.271316811326498,4.629553404470611
2788,7.06006180973005,7.992796811746404,-2.123845259051186,4.335135370889623
2789,4.078367287149826,7.584987542983967,-2.3556924628803393,4.378918454278894
2790,0.14240678067945478,5.713343424928128,-3.5195384890112367,3.4076474008743904
2791,-4.493712687386726,3.710123208281757,-3.4447041785292445,2.699073993305039
2792,-8.495217298143137,2.449094756695514,-2.6175650220872058,1.5617291372983684
2793,-11.411500786001032,1.67185161138631,-0.8558738005347034,-1.902207115655425
2794,-11.308955185087916,2.29858367657612,1.802510539760584,-5.947061953106581
2795,-9.055458757289934,2.3920249787975485,3.870604659542521,-8.057407104842234
2796,-5.917919158514501,-0.5359367021524566,4.797037676321093,-8.412577223950866
2797,-1.2570075228275255,-4.21957345388557,5.241269622405914,-7.241038484150372
2798,3.507139845444967,-5.927502360334454,4.987821831471903,-4.349141412076305
2799,6.9875548754546335,-4.898573050262731,3.760358650263172,-0.6841397133118464
2800,8.642724238850972,-2.31640281134751,1.7498373395353313,1.603419949919675
2801,8.515248470314342,-0.5580610126437684,0.13917309218058738,3.015478920934554
2802,7.574517590074754,-0.13520375668088344,0.010584482138650306,5.123360030053065
2803,6.145238001325137,-0.29314285204965757,0.41908576020588734,6.608622604156419
2804,3.247805223982409,-0.446293654292036,1.384297207114101,6.067981274851615
2805,0.12287551836540153,0.23007351655862446,3.16186730646523,4.933110316327199
2806,-1.3559190598017767,1.7562051940410712,4.129135067748025,5.0998029010529615
2807,-2.0562316178566826,1.8093180810071618,3.7023302334098473,4.58192374670648
2808,-4.248392327139389,0.021712955741400364,2.9979532929911907,0.5967674816479867
2809,-8.500961723403137,-1.3179190563717844,1.3343558870726822,-5.606091843544501
2810,-11.86481401400979,-1.902872991269253,-0.5965497135051325,-10.616206478379242
2811,-12.491411301014296,-2.759441520058609,-0.558828241829666,-12.88273795729881
2812,-10.961800762336711,-3.424779492437513,0.030738798083739374,-11.808160664644326
2813,-8.244579147853942,-3.902629575331925,0.619385248153731,-9.54187081656961
2814,-5.8898096052331805,-6.1732941328682225,0.377465580195042,-9.077501428233953
2815,-4.053293315561685,-7.560237052399391,-0.5761606586066677,-7.735863098766372
2816,-3.593996529744684,-6.909079790037925,0.33422104129803665,-5.879995471319621
2817,-6.387273706606644,-7.252978281326484,0.07817656347194335,-6.568565294406237
2818,-9.351972778979146,-7.613558834601844,-2.482335061087071,-6.373119928197664
2819,-9.064395294386006,-6.516719586252147,-4.37754097227874,-2.325547329869279
2820,-7.458920790195319,-4.420617014670141,-5.733789677208973,2.439776948362074
2821,-5.256023672493036,-2.1082877803304445,-5.046921269343482,5.359564398968904
2822,-2.474864018910282,-0.697872451814961,-3.0953794186995602,6.186513957024822
2823,-2.1568707378900815,-2.1607638921633585,-4.01811106760895,4.715699707934324
2824,-3.4163943003138457,-4.570219905559505,-5.808637159836673,2.857506373855719
2825,-3.5446419387469934,-4.730760410853593,-4.997560549252661,1.421997663462307
2826,-3.3432970486918014,-3.213347152120657,-2.834303670366258,-0.1224649029513552
2827,-4.593848537974476,-1.4026879592628985,-0.6038077402307316,-0.8292665441951058
2828,-7.411338895090866,-0.25011329059109644,0.6117024404968321,-0.07067761652413462
2829,-9.995379696682397,0.6487649466206388,-0.9169637660680872,1.7849165010420416
2830,-11.393810048763438,2.081863218451236,-2.7817981341056526,2.96464468534434
2831,-12.065452301815082,3.5335127213679685,-1.328314296833428,1.888084556432955
2832,-11.067350030730715,4.074070196530362,2.0006584319723286,-1.175759223097673
2833,-8.185558405473401,4.255309718864469,3.4093099226716204,-5.9464692774476635
2834,-6.463529557598374,2.2904134227187627,2.174547227426232,-11.737223327504331
2835,-5.61009464134071,-2.266099179596633,0.9341311651095412,-16.023227986006805
2836,-3.5713766497181774,-5.186890073317221,0.4961256735212509,-17.043527399650742
2837,-0.5223872156213354,-5.1109170734527485,0.1561727512109366,-15.199118896065563
2838,2.45285827430158,-4.236730731093296,0.39784338554528054,-12.23407971816478
2839,4.563389604700614,-3.6934782200759755,0.5113800674560517,-8.491708068028814
2840,5.3796077543225875,-2.1822486631040876,-0.20381502704034904,-3.9497339184287705
2841,3.017916275006835,-1.6900241751809202,-1.6241410632383602,-0.48130044409272266
2842,-0.2155239815634279,-3.9372206600829927,-3.010010123917917,1.9919847810089764
2843,-2.0519035066964344,-5.607725695175124,-3.633613392004535,4.330676625898597
2844,-4.160462219948169,-5.876431430254477,-2.8822566722923515,6.016644954254189
2845,-4.668845650741317,-5.2685947880615425,-0.7299835278873464,8.338730258030395
2846,-3.235810414563515,-2.7020069670800746,1.0896845953413414,11.675683807953666
2847,-1.876607736561196,0.7755078093256027,1.530440784140384,13.713067728321962
2848,-0.22505518487073634,3.739153242338316,0.9903529323222584,14.524201488812574
2849,-0.5103499100640205,6.310618235580069,0.31437512163202297,14.614271831757966
2850,-4.164441237640841,8.515839465507417,0.39481873013391583,13.835569738935268
2851,-7.088034971684227,10.366072555779457,1.5088558451080067,12.325366566700092
2852,-7.49083062928509,10.688851995680833,2.85608017195572,8.502295164788295
2853,-7.043072467872971,9.324404326143446,3.9884520634207328,2.4582332290121727
2854,-5.15890762691483,8.941749131856774,5.511267818833627,-3.004599016879931
2855,-2.8107170614598145,9.241255118700382,7.621639050912074,-6.104329002465977
2856,-2.085601197339599,6.99882065023417,8.607370177522514,-8.182090367014382
2857,-1.3885225739332676,2.0516353528912314,7.581029146609753,-11.6759962691917
2858,0.2118847497327474,-2.6270460325862097,5.991060116604291,-14.414290722673874
2859,2.880734326138444,-4.860045934884806,5.326002233464074,-14.164684037511897
2860,6.530697308102262,-4.848288664987402,5.583472265554343,-12.056092209250934
2861,10.13412284979909,-4.2194344105883275,5.540018305010635,-8.091361235506751
2862,13.957308783031975,-3.26672350054856,5.361220980545028,-3.1781442179827826
2863,16.87483235668821,-0.9137203207152135,4.09058362820697,1.8770735224119384
2864,16.38272424241196,1.2164830578719328,0.4310688548870198,6.962914911225643
2865,13.995883969736303,2.4367589407344465,-3.2514394424012227,11.400174998471648
2866,12.662664223855458,4.8461582859325505,-5.510727628808886,13.932414179150545
2867,10.5772808169103,7.146364410193492,-7.460894545371527,14.03284149563237
2868,5.830049638236019,8.415899717349392,-8.172873697849466,13.737224787047294
2869,-0.11094263043068363,9.595344633250178,-6.193468476096125,13.983616988206538
2870,-5.323063346261256,8.948789761390351,-4.097027794478904,13.36929164667544
2871,-7.505552261531373,7.147978661320094,-3.3482931886181655,10.820731175606866
2872,-6.261979867306937,5.959612046805398,-2.5226972264723706,6.452892696099949
2873,-5.677100145713197,3.470609102463245,-1.9558636279083603,0.9905361487713533
2874,-7.077006542801795,-0.035224865998898014,-1.2182299265616168,-3.487356121735839
2875,-7.715206948954022,-3.5740229664787067,1.0010083030570809,-6.82309853725832
2876,-7.311387392491438,-7.6852448912075255,3.5612897774948045,-9.548297871535812
2877,-4.912639991999839,-10.341731225447646,5.317544211436507,-9.560890447597
2878,0.9687521085754257,-9.32785993611184,6.233717767029466,-6.96938928442284
2879,6.57651605020222,-6.917952283814273,5.734342113719579,-6.101509660656837
2880,9.2786212336088,-6.942653825553678,3.9730579900606156,-8.112872124073146
2881,10.645223329153238,-7.479417914319482,1.5801352582748114,-7.91227600434469
2882,9.932537870309314,-7.469025155586733,-0.998172381010714,-5.110241050926834
2883,8.591005362484687,-8.189144483124718,-2.7590217676321376,-2.2257106058837177
2884,8.749665684896044,-6.873606661366016,-3.3226767527630185,-0.6773895037697353
2885,7.563725842892371,-4.4485685731421984,-3.438546864871779,-0.9833337237900914
2886,3.5596303545967705,-3.5201932835747733,-3.8895483945416744,-0.21973519458133248
2887,-1.9764544611785775,-2.54424303548824,-4.426671405042481,1.3734144609444972
2888,-5.644972282621969,0.05348539108231713,-4.240756792813588,3.5509706313911757
2889,-5.595894103186537,4.028508729694703,-4.495744982173938,7.270083969268266
2890,-3.9916493972850313,7.8119076894326,-5.471276728176326,10.647883371679297
2891,-2.9726914185519577,9.998713143259803,-6.0916624596440165,12.402582652736085
2892,-2.4993306289781954,10.913959785013379,-5.736939703050206,12.058863826734612
2893,-1.8847431990919024,10.55995843000471,-4.566062212197988,9.037676890951268
2894,-1.2302297988158495,9.046781223005077,-4.02717506879746,2.7431895988767017
2895,0.17176279337360945,8.642026393579496,-3.6659926601631705,-4.726090846125564
2896,0.8132087527774505,9.191278487794262,-1.7391016336722778,-9.208327135921895
2897,-0.1309994133320988,9.096472811458145,2.0891430168413034,-10.824300634576366
2898,-1.1565912567563046,7.340258161974522,4.625918898465214,-12.438472453718678
2899,-2.4392735640033116,3.8148241711697146,3.8265896031336135,-13.21216977576006
2900,-3.2841467167229736,1.2128734102668053,1.989018768995877,-10.737817465019273
2901,-2.8813559419725836,-0.01621754158418301,0.7861781190666687,-7.1516630649730075
2902,-1.6945859564838355,-1.939105753926282,0.4281464884701197,-4.188900165594969
2903,-1.6576109519534927,-4.278380753787658,-0.07239367831705976,-0.9714696740670224
2904,-2.991092773609887,-5.480651338214154,-1.6268099803060474,2.417287218272591
2905,-3.8496318043368505,-6.261344102953848,-4.165629892003844,4.523533014791931
2906,-5.013055069924746,-7.570037474288224,-5.684371420286272,3.396013716747331
2907,-4.671518297170001,-7.160082804246361,-3.574852144300381,3.17214418614443
2908,-1.5456377575239317,-4.307700863293848,-0.649050321742314,6.170352021047789
2909,0.8564564826687253,-0.9099741440510256,0.10260820645472046,6.8297341589691625
2910,2.4604207221382284,1.3060468884727654,0.4165651417556584,4.468718014110797
2911,3.9194544985348725,1.5815571101644073,1.1467516898024246,3.020884925317294
2912,3.6165349015172548,0.022741028657011247,1.2093086470137502,1.7075719546765553
2913,2.6600315938298698,-1.6091096502671867,1.2578893717880673,-0.6973124662286351
2914,2.202140881989054,-1.3707542739078191,2.7727928577925973,-2.3231708755238962
2915,0.6566119526958788,-1.085210587199856,4.5140495119095405,-3.2387297144978078
2916,-2.6093114877445047,-1.775033447995731,5.562949951897028,-4.2280464278514955
2917,-5.543476698908007,-2.1747683242837024,6.3995839834597525,-5.067497912676184
2918,-5.340357354740294,-3.1410459938388837,5.749216200345912,-3.616387495406134
2919,-3.0864119335986895,-5.368149689759496,3.1698711720894783,-1.2255596192121376
2920,-1.2916948963207753,-6.916935186646316,0.4413890203007475,-1.4932472395488152
2921,0.7565783803422148,-6.519443481692311,-0.9960133545837591,-2.809650825092111
2922,1.9472689984128835,-5.855158480458846,-0.3746990729528356,-3.89942334724921
2923,0.6897297231001964,-6.341015326206143,1.592688487864908,-2.8273755093251673
2924,-1.5020728296086703,-7.312258625553057,3.029834100957879,-0.09695102548790993
2925,-2.8714901823885457,-8.736554244229877,2.7252587801549204,1.2277594348949483
2926,-3.903848859735519,-10.81252814282401,0.5420880815452471,1.218797885306807
2927,-3.7488563803500963,-11.555940736927859,-0.8662237531176784,0.7509460501773
2928,-0.12565602555852592,-10.177583100439108,0.06487457341400171,1.680727132247179
2929,4.366716619003807,-8.298376771154839,1.5836583828913693,4.016860253660241
2930,6.269569983699402,-6.777949064567201,2.782118609322437,4.743577816285541
2931,6.068216103165205,-6.173796342246751,3.784121453585372,2.032396884870224
2932,5.233114961727144,-5.767362613921587,4.381729058422941,-2.3895556082435734
2933,5.12764058993137,-4.089088355610181,5.25000402057971,-4.833794307607251
2934,5.643425398826715,-0.6670376355088677,7.15564057385663,-5.196199211412125
2935,4.874830573161911,3.577511943216207,8.68749845328598,-6.038461202165583
2936,4.085834693862803,6.148805172418698,9.374167821630284,-6.859174223892023
2937,5.823230254822784,6.5561531957314045,9.198996622548995,-6.468642920327893
2938,8.636733314071972,6.404241304898878,7.853924067823498,-4.922957815463811
2939,10.157236312110152,6.131052687736805,6.14521304108074,-2.89599450955196
2940,10.079198811613287,5.06822722576135,3.6173801829874908,-1.3483906481948598
2941,7.607939849690204,2.9713633306765104,-0.12467639278132998,-0.9516519347360106
2942,4.307527006185988,1.429213561595841,-3.1582320138178885,0.15378626702298884
2943,2.5344989367788475,1.947407726777051,-4.874146897320407,3.721730110449717
2944,1.0972014204294236,4.722066320629812,-5.623349037550859,8.732358389021684
2945,-1.5034429097184023,7.645518814994182,-5.185572608899532,13.239082099663893
2946,-5.509026294486016,9.070435388464244,-4.243296252878024,15.38944406527046
2947,-8.993617124063416,10.043726869872998,-3.5774814327554987,16.00409306473078
2948,-9.831578943115677,9.347172781360443,-4.122473690272496,15.338326389955865
2949,-6.875434358654032,8.299960651513334,-4.146059368704993,14.40074233530134
2950,-2.7525070052584817,9.35688404174417,-2.8325371974338833,13.101824346497054
2951,-0.5010435531432398,10.045486987213739,-1.4001834240206588,9.609113331756618
2952,1.091581994291016,9.642700235693383,0.7325607381412576,7.468285624719957
2953,0.8112434650897954,8.890870127977838,2.4544359494264434,5.8785358760087805
2954,-1.9312726990309428,6.502598775962206,3.2846625639545457,0.6359766328707623
2955,-3.003227688698362,2.9581368050440138,4.254602605403724,-5.530751625019156
2956,-1.269018872725727,-0.1291936318666479,4.565169093703925,-10.195012836666269
2957,0.7363001620529324,-3.7616760824376083,3.70666066122729,-14.42183324564251
2958,2.87869638298648,-8.555411108502371,1.54844035316945,-16.95224210906714
2959,5.756541880788507,-11.158820623111263,-1.1410346838608088,-16.26848220791415
2960,8.023897163044879,-10.211826378565533,-2.3061268307304106,-12.937365383992145
2961,9.000412394522293,-9.207247650456472,-1.671934563809256,-7.6538425346232515
2962,9.810779219506124,-8.268404596267246,-1.1984422706934479,-3.1075293995365376
2963,8.867081303548241,-6.738663928785644,-3.0290009158641733,-0.4066325305973305
2964,4.673093618152989,-6.35288007099524,-5.7922089508010375,1.792876523194802
2965,1.7916968173330008,-4.531182487017209,-6.295343090760736,5.197500509542276
2966,0.8771644039272253,-1.1424351748758284,-5.169449074435545,9.87576075353601
2967,-2.291791051254293,-0.6530932305788135,-5.2278707843154,11.95063159354645
2968,-6.210627712199968,-1.7754960848958155,-6.32596510056449,10.461507449237565
2969,-8.903912600346121,-2.619258602065411,-5.642024953060744,8.476540826365191
2970,-10.350057531497757,-3.2442571908855475,-3.7538025955774255,6.030126301966862
2971,-9.79387165368638,-1.9292959217278587,-2.7093084216960643,2.374549566987628
2972,-8.378696477893687,-0.26135354025136137,-1.617691701955615,-0.988882471733417
2973,-7.073460377888986,-0.34573631504772195,-0.9722114600315636,-4.4709114506034435
2974,-6.420195428959055,-1.526952220734939,-0.6032734409509849,-7.463241861217416
2975,-5.837526760987441,-3.596732769231875,0.30579860736287745,-9.067729564278627
2976,-4.304250714418178,-6.680485779406128,-0.07510944228126795,-10.430510051468257
2977,-2.694622791246328,-10.347695862837492,-1.3465934372552797,-11.409641510090779
2978,-0.07225193853404921,-12.412207402000508,-1.586684198823255,-12.216548860654497
2979,4.5254164621476205,-11.418303036419054,-1.65984242383583,-13.457665484691239
2980,8.777969516640875,-8.418908620532385,-0.946168588148297,-14.448230956599545
2981,11.549685133483456,-4.0033173068028045,0.4892880623255249,-12.867468452615016
2982,12.79335754049561,0.5626212180349623,0.7033197003120162,-8.461265915091316
2983,11.475440727047806,3.6645134359366036,-0.32068188039481693,-3.393728833505846
2984,7.101356218364039,5.044992709336186,-2.481151036699779,1.6451371805401362
2985,-0.21462280875204315,5.328611519468121,-5.83853447276389,6.38146532670908
2986,-7.326357529042927,4.7589616627928875,-9.752039332109543,9.680825812478888
2987,-10.645213505008766,3.469878536345235,-12.446894220150728,10.358124227095436
2988,-10.342076300505724,3.1902500659399653,-12.839186732349509,9.089002106476748
2989,-8.81014747002517,4.3482344651945635,-10.736462528843553,8.350609740317367
2990,-8.312766541462441,4.424596314766434,-7.627885536597114,7.210968993094425
2991,-6.643321492899137,4.872205976082068,-4.563011697916635,3.93471305883197
2992,-2.985813908181765,6.952794220999908,-1.1787523661749122,0.49209833704902717
2993,-0.24664341478578522,7.110897071195998,2.63415206785029,-2.6170281266943585
2994,1.4104060313296247,5.778270366053988,6.61214949066117,-5.652482196827865
2995,2.7895432286134736,4.77969224991686,9.953224414769252,-6.9776909955161175
2996,3.8741396533478842,3.8647709717789205,11.87651098177682,-7.079864502482199
2997,2.9086018009143118,1.9188049112635952,11.684583966730886,-7.822526826968543
2998,-0.11052768074844921,-1.3861474540408525,9.610564108473527,-8.038876830411372
2999,-2.018565306841382,-4.8392037069353435,6.1667074830343855,-7.648209383511027
3000,-0.8416911890050849,-6.9560488205832725,3.184762456768767,-6.252387158698556
3001,2.4896515221505844,-6.424350145121609,0.8049496784696484,-3.283567997553061
3002,5.234127032626604,-5.232361062888341,-1.9157400460777465,-0.606878430386381
3003,6.549951883614001,-5.782659981802729,-3.8535466460705314,2.5227397251085244
3004,6.973256402622454,-7.261265998453389,-5.94313599920926,5.490387480445819
3005,7.198986615850363,-6.176649027320732,-7.506020047154683,7.241560972177687
3006,8.691284565207242,-0.9803462059620349,-6.161493336103341,9.317860827550225
3007,9.538502816950764,3.987942816504192,-3.300727196234661,11.450240709498289
3008,6.720592607610047,5.480766161043656,-2.067380648681791,12.136610597516942
3009,3.2678173792673,5.20506339348806,-2.6272853616555825,11.382488202505733
3010,2.8023540471516544,6.07327114854297,-1.8742901585497784,10.591898182466636
3011,3.3968645512857485,7.741068382047696,-0.19587629865252654,10.085375274214385
3012,2.883703942605299,7.665749003684697,0.6197281854356321,8.122997424062001
3013,1.833119655304098,7.451520174386147,1.9398072824575796,4.662075738257516
3014,0.07381292231033879,8.1754960907763,2.9941955782232097,0.8804929069485076
3015,-2.6388648487069,7.646814323169421,3.0425602574165898,-2.8971224430236266
3016,-5.456554017273273,5.3505633790337574,2.988505399559372,-6.40669602512173
3017,-7.024386287491683,3.0448822568788523,3.2283511504262457,-9.738884081596971
3018,-6.396327862588658,2.1677920076616566,5.321913801039254,-11.63175016069973
3019,-5.869052429956585,1.287295882984411,8.630259622201107,-10.908792636029789
3020,-6.483052778029683,0.2976793317849913,10.967838926711433,-8.25839332496859
3021,-6.460387172247725,0.8092607464445096,10.46485654130854,-4.496086952108456
3022,-6.821879543234042,1.3203998974923266,6.845197184318591,-0.029959372271136542
3023,-6.7806509188437705,0.11222089118844997,3.1949941046336416,4.308608972744537
3024,-2.9015817466494886,0.19645682114393992,0.7496106418004326,9.005269193265292
3025,3.002129583231693,2.0023522434249172,-2.144453116704789,13.515600393841229
3026,6.059028662886596,0.921589918081457,-5.71953480623403,13.931300096170988
3027,5.662830778460513,-1.337146471410141,-7.93670387932534,10.461318505635067
3028,5.578069329529791,-2.6314868190759833,-7.750872165543402,7.838727807554455
3029,7.899021051667465,-4.056652200904889,-5.6391491074480795,6.792210601777414
3030,9.845417038556475,-2.721682459372446,-2.817324652980302,6.586273110118716
3031,10.28836715308624,1.9773972157328488,-0.45258146425276985,8.530349933957162
3032,11.123099615134722,6.703685004007064,2.470637272321419,10.458227294366377
3033,10.705086356286419,9.35903725985833,5.437169395475847,10.017525418595977
3034,8.040425352464952,10.728248447614678,6.578035968850813,8.531772495050465
3035,5.357697689990673,12.12476906728975,6.782669301344367,6.401235965334048
3036,2.3985549312630043,10.918256539455278,5.66360570211238,1.2289487767204703
3037,-0.8845278179260967,6.506764384985432,3.7094926017742935,-5.214983904238358
3038,-2.626303978290231,2.662245358865429,3.089867229769531,-7.819811053785017
3039,-4.590637222254122,-0.269625053231219,2.4765846844063013,-7.757769671231998
3040,-6.588225785682837,-1.2875455147231143,2.5635778739911212,-8.321483277760464
3041,-7.261767363917863,-1.6984054583772203,3.3454574301855873,-9.890209770466841
3042,-6.527372002430141,-4.0540974427886995,3.283802820293172,-9.107366018083244
3043,-3.671185027208693,-5.5217924744672455,3.579631213364586,-5.777680084702087
3044,-1.8551291136104722,-5.865227666441435,3.504667637367452,-3.829462334596876
3045,-2.081372079021028,-4.36279644231396,2.7010390903644375,-1.3654291778188266
3046,-2.177851944887262,-1.16174312861761,1.7799532083212757,1.810171665004892
3047,-2.0563891354347184,0.1318920425710677,0.17562186176329378,2.645541494512597
3048,-3.5430838923827435,-0.32638425717972525,-1.345267817653045,1.5761431995017785
3049,-5.439220212099425,-0.08080053588755357,-0.5520622253732919,0.4798175847271742
3050,-4.943185961304548,0.906946648277576,1.853549343329362,-0.22859986599755366
3051,-3.420765845666727,1.7624655474460826,2.835978575961482,-2.2170247965925487
3052,-2.3155255327721354,2.4262658062062785,1.8673588390921005,-4.217673495974129
3053,-1.2642225567430252,2.4639822794179325,0.20443973267074597,-3.4920497756900146
3054,0.7255315326267407,1.773367109747268,-1.1475951045105133,-0.5859035151444209
3055,3.2585434630369803,2.068905481887447,-1.5933881572394697,2.975360002654919
3056,3.013418379120752,2.8279294408494264,-1.2390346668391203,3.2660306306823657
3057,-0.34689089040429916,1.6805348405462481,0.11799608092857634,-1.0451727637324815
3058,-3.5758277685931024,1.5984330998672167,3.3781494242154015,-5.731322326238799
3059,-5.7231022688004005,3.9854182470130324,6.5519872062543225,-9.338696365516192
3060,-5.580456057231916,5.835478113190181,8.563998512557697,-11.401584906612856
3061,-4.314569780353681,5.564169987357801,9.901781639843051,-11.859709829891926
3062,-5.824163367957095,3.1462637881221998,8.251260148837666,-11.542611558979289
3063,-7.950408311152142,-0.45595589587323365,4.57659807888129,-9.37820513477255
3064,-7.3811102675507865,-3.2163148744069248,2.085706512544971,-5.075346924710554
3065,-4.668618957790433,-3.527617030885324,0.2957602241613652,-0.18645762981871195
3066,-1.228356755714303,-3.366128038956536,-1.3736521745999155,1.9116085632844864
3067,1.8006560295164564,-4.457513360782212,-1.947544554101912,0.525493273487214
3068,3.772904578421345,-6.260022727296217,-2.9868984226772595,-0.8906013821842942
3069,4.52381204933064,-9.146407719209657,-5.713256764729897,-2.6149194485725316
3070,3.7338344566651824,-11.82052704678364,-7.453304884706337,-5.576341100107176
3071,1.623227070136652,-11.865956644216123,-7.27428884209503,-7.3722009000131425
3072,-0.05575187132796505,-10.83310405271207,-7.020312965747953,-6.276559747606939
3073,-0.3860799591763001,-9.843442483240581,-6.122286320636356,-2.955670736087494
3074,0.2534844038160279,-6.74868747457433,-4.86193520435033,0.7320027467665093
3075,1.200414336201637,-2.2622630120642713,-4.6416199107994505,4.191371820429298
3076,2.103469290078936,2.8734980246789883,-3.0977226641788307,7.279258022012181
3077,3.256975224232758,9.074836353182286,-0.7558991686406193,9.914065964423711
3078,3.436255046762528,13.57287716112614,0.21548004685904038,12.533245511006243
3079,0.5431865333637867,13.39530015647182,1.3089194484846074,13.18080058264622
3080,-3.749547844461588,10.144989410122106,2.3961246683311805,9.234514609273115
3081,-6.3645399767434725,7.608688963536086,3.057878538967163,3.4853981647026284
3082,-7.525371065285966,5.245260771572777,2.658988437017286,-0.7466669313547496
3083,-7.548697500426374,1.551276700738531,-0.3763766401699682,-3.6054209673871194
3084,-7.3501483891407595,-2.125330070854646,-3.4491155973305014,-4.624427350936003
3085,-7.14974844892353,-5.360028142851165,-3.099988551444797,-3.342089673251881
3086,-4.235366768350494,-9.16722574996939,0.22919820117005893,-2.52940701085551
3087,-0.1785466170581328,-11.629219154735317,3.058234397482669,-3.937806365875237
3088,2.444057990488783,-11.482148525586002,3.6787935127183387,-5.558192391167634
3089,5.932000641811723,-9.768607904966172,3.6557898573550425,-5.856659989880662
3090,9.69305057288894,-5.876236389454961,3.6257134250741885,-4.897384713844825
3091,9.569697658449863,-2.4389810947844883,3.168731691157793,-2.7955291610149016
3092,6.471466204903286,-2.213687726899151,2.863585801664355,-0.6069992155377139
3093,4.307238188945784,-1.9438916177661385,4.030448723277915,1.0719595560958135
3094,3.5074833733739172,1.4071887292408884,5.430255648279652,3.8129116266995617
3095,1.5201481985590937,4.980804252353013,4.471451195491016,6.42042966816202
3096,-2.0817538287990214,5.854577918369861,1.9131354381040648,7.636692528697375
3097,-3.4238008809780425,5.75995735134763,0.543546225767406,7.269021818525466
3098,-1.472492099269346,5.793300265479689,1.7889107194796934,4.835038937823517
3099,0.49733389088419677,6.453578213560979,4.997816852622104,1.2395884007767264
3100,2.0640769598189324,7.1548597432303005,7.000599218623219,-1.9580193037565847
3101,4.663488015495349,6.075219686521596,5.566310670413373,-2.4381814370909636
3102,7.392716732293395,4.534141107091409,2.71423653604875,-1.113674241681055
3103,8.632267526997156,3.3196797749301137,-0.012683792283336326,-0.525860694908242
3104,8.037235589808937,0.915361033258691,-2.0356767487510345,-1.7138851272581996
3105,6.9317748273503295,-1.5683914694457377,-1.4025159317885345,-2.329463848529922
3106,5.451256557100928,-2.161690262353944,0.4044369569618617,-0.12108467074637147
3107,2.7430377343600676,-3.409871207153978,-0.4390229976673394,0.3521086286298013
3108,-0.35935287008526967,-6.371743644884375,-3.095218871200775,-2.298075999623423
3109,-3.0278600432149863,-8.339477760351944,-3.2658797638796493,-3.481522974856547
3110,-3.66909344752371,-8.90396626026605,-0.6075908511903646,-2.575051219745404
3111,-2.7895445675431514,-8.966553280627684,0.46929875549620603,-2.783165661282429
3112,-3.672353383748514,-8.039156571924162,-0.5510862530656583,-3.9884977273963225
3113,-4.6030052446789105,-5.503267955361411,-0.26559384128202296,-1.855960956834715
3114,-3.0279445954477073,-2.5889573184733643,1.2534450865688915,3.496982212362255
3115,-1.902637740416799,1.1753766879130365,2.812284588987611,7.316626803256048
3116,-3.363236863853189,5.367264580900948,3.7834948018990175,8.21809890556253
3117,-3.7633169455003004,7.920248693739632,4.139599300269828,8.879434996668067
3118,-1.0683906216403614,9.413568230338438,4.9471313226055855,8.705640033211361
3119,1.5923482349029916,8.924284979083094,4.689429777031893,5.803410100063085
3120,4.0382583924353375,6.905755523311675,3.261855394042535,3.558756806907227
3121,6.192213758126875,5.976354124808202,2.083589487394828,4.64458355030296
3122,6.605018815914438,6.880952486251724,1.47265199227938,6.528131880763009
3123,6.390716510095822,9.510176690907537,2.246924151084059,6.63932191308794
3124,5.381753771396453,10.192668858409641,2.314931213625399,5.154413816920326
3125,3.547443262976333,6.821046452645767,1.7544800549013322,3.4112577280242142
3126,0.7937208361586394,2.783761613729014,2.4590987790559087,0.8243236953143895
3127,-3.0632993549978496,-0.9662324306206618,1.3138999827241065,-3.771220887831708
3128,-5.312228147621694,-4.168746886178719,-1.896191741418358,-6.527819162519403
3129,-5.192943731774749,-5.01228315096114,-2.3270898036323127,-5.69469725950163
3130,-4.385195942587192,-4.145999884703803,-0.6134610469854567,-4.039513395884812
3131,-3.573894906057707,-3.3378318590580958,-0.6238483607333732,-2.59705890053917
3132,-2.232135464382348,-3.5264925893108634,-2.4786165641339055,-0.7682902069802598
3133,0.17848642686614624,-4.076562487442612,-4.446888452912527,2.014851240341354
3134,2.609303845794124,-3.518368266288983,-4.789613400472593,4.999731301012731
3135,2.1676105714941936,-3.5758735011881106,-5.8445861689363925,6.453987521520709
3136,0.06446721526975874,-3.736397445326005,-7.070867265052318,6.573332133117533
3137,0.47231736615433506,-0.624362463233232,-4.351425332996119,7.045633279670476
3138,0.7060143340014671,3.308372546717499,-1.8124213570076138,7.822826844379607
3139,-2.8301579565620005,4.557149973395907,-3.48850091526925,7.190161630623537
3140,-7.92088999564207,3.1372669188278115,-5.846893891002196,3.626703883916406
3141,-8.49993109454663,3.608998426395746,-3.7823314739002627,2.4848203551654877
3142,-4.325573707112992,7.2795890933606255,1.9125527752424558,5.6042890670200105
3143,-3.253885563258863,6.132126140835167,3.7146178154323946,3.5341318621609634
3144,-5.029714230341084,0.3670100412092355,1.4062054382226437,-3.7291006163568836
3145,-2.552516437455137,-1.3635477035626045,2.2581707811793272,-7.216912282726497
3146,3.5891546283519746,0.6022396393048811,5.397947506251688,-6.2482316034704315
3147,6.38993850955788,1.8493121173977634,5.017835037559023,-6.179608383532049
3148,5.469635431194144,1.9198304370283066,2.4395758380403683,-7.585116998365283
3149,5.913137749611414,1.6141223612674018,1.8009187905505875,-6.655185034216782
3150,6.626945005718013,2.145263968671466,1.800205251532561,-3.2503563559702235
3151,4.189353633269135,2.8313537165871505,-0.7546142411794163,-1.2166786842373187
3152,-0.016671577293545514,1.107648941385708,-5.117857875070673,-2.1232725747614367
3153,-0.7666475042419679,-0.5522418441412204,-5.925073260175336,0.025569641829865875
3154,1.8895658031863722,1.5639617234114656,-2.6659434360030874,6.743028745269669
3155,3.1487647391733793,5.281839096826381,-1.3559942230637587,10.24387565842511
3156,4.259328364043476,8.156141200061025,-2.3799931930339504,11.433879365251375
3157,8.294920147779033,10.871152009458804,-0.8432678616514813,16.78798020339483
3158,12.272612077906407,12.888060014098105,2.903692941017037,21.22348725440771
3159,10.337649449364687,11.103513106306865,3.2345737378365653,17.694038289563146
3160,4.333196536975652,6.310572226968548,0.12207320027928592,10.665808832105943
3161,3.382614854377951,4.084966192957004,0.08224485833967066,6.895402909753367
3162,7.934306401706878,6.246843994336687,4.695960603980126,6.391098678931916
3163,7.730775411502797,8.558323358328865,6.950373681505156,3.539014742610236
3164,1.8871012742060511,7.723909149509193,4.721370923320245,-1.7280748693214996
3165,0.8147626599805569,7.603173711071822,6.338764242430339,-1.2777721395700892
3166,4.991383073900181,10.416763392951989,11.69726732995925,3.3676815708487737
3167,4.79178424312882,10.362046742492106,11.104625632958895,3.214396286092036
3168,1.1986344402109181,5.924946651636715,5.818541139994542,1.026594148186021
3169,4.181089435558979,3.0320282126305216,3.881747705121562,3.719497335437774
3170,12.542239593444377,5.00204353167911,5.512382411440367,9.751867575763818
3171,15.220298767831107,7.08556105782883,4.345027426292914,11.85436976167236
3172,10.96180662673778,4.186934497252628,-0.282204209144572,8.33156697151297
3173,10.326897563469497,0.8425218503591942,-0.561391485679285,8.231873452961041
3174,14.158758018010104,4.038781177920065,4.068866473189635,13.294806929209994
3175,12.069782983308457,8.72243868601237,5.1396341837447075,13.863355542113698
3176,3.1409321100626317,7.0988142299299675,0.9112676316717856,8.556275474481104
3177,-7.404946658161165,1.469315827042272,-5.07407644527375,1.4492576497712282
3178,-16.321826666517705,-4.94148159039007,-10.072949487363884,-6.840309099835803
3179,-18.133154453506037,-8.291523787137352,-8.982015399499113,-9.996957091757851
3180,-13.950778923169732,-5.222186583515312,-4.16401667362187,-6.066862590349849
3181,-14.291633083152554,-2.382985602290499,-4.8443249673810325,-5.500392370018099
3182,-19.542227463632774,-6.745252539657933,-9.579682711513126,-11.22665467415051
3183,-18.961790996387005,-12.54511979012665,-9.581438407523445,-14.579525189635593
3184,-13.129932901155836,-12.708573021013068,-5.721130033221674,-12.64649000817425
3185,-10.940824659201413,-11.275212953516323,-7.3344162427622255,-12.797822661757882
3186,-11.68329117487505,-13.122018769836558,-14.989072707821965,-17.558825444759904
3187,-7.415312084411393,-13.283711042306138,-17.56205083374299,-18.44365714298555
3188,-0.3938163242359949,-10.719136753791847,-14.047756912649426,-14.864139669247699
3189,-0.6916648787275752,-13.67717270083812,-14.312942988004645,-17.02187361489913
3190,-6.133926972339714,-21.221402201051372,-16.698258855335556,-24.046805361275624
3191,-5.795839002452457,-24.750139668447982,-14.713979803393203,-25.771440897441177
3192,-1.1495681499915484,-22.364873396175703,-10.732859082985753,-20.8408151911744
3193,-2.74275272721876,-19.476009268579087,-11.332409412957917,-16.451773195599667
3194,-8.640082217622219,-18.859237408317973,-15.595689185399817,-13.638647362430184
3195,-11.152038552443654,-18.641825488424697,-16.19722522404119,-7.870847381627365
3196,-11.897515466370491,-18.22896608261431,-13.558900708278092,-2.880969642903741
3197,-16.487705834329546,-18.661267142335348,-13.202669004645852,-5.060888670052329
3198,-22.791519458515968,-18.241260889029697,-12.755418510728788,-10.151134484152935
3199,-23.26832358220489,-14.009791466784495,-6.54269764342554,-9.082585434366687
3200,-20.149159411920838,-8.660195402887803,0.4189369120799593,-3.4915102119544867
3201,-19.926298187913698,-5.28024467928892,0.3870286465273154,-2.4506432115662165
3202,-21.20525487305317,-4.319469816995111,-4.191878859089509,-5.960044654613718
3203,-19.070581321797555,-5.4271907524774745,-5.825989002998632,-8.46166055436476
3204,-13.308770717401464,-5.961553993688095,-3.8894322001683106,-9.950893602559567
3205,-8.735132779095974,-6.985380145389884,-4.103755076393035,-14.070140024682829
3206,-5.833823634656919,-11.466146986172697,-6.913870287379742,-20.206089409142642
3207,-0.45455989291180643,-15.40419523332071,-7.755283684035248,-22.263460848431258
3208,5.6421714604713165,-15.13784253585762,-6.412712703426877,-21.257862678027486
3209,9.573791680305105,-11.241807601259282,-5.2489398743878075,-17.650057919152978
3210,12.727539591963456,-6.446492049251059,-4.14833682375989,-9.119927178913919
3211,14.76663392843361,-5.399102423586025,-2.588774788676268,-2.4567476522328606
3212,14.714372374069965,-6.464328126793306,-0.6962776773999387,0.018501721457314657
3213,12.3507466599727,-6.889155002473547,-0.3117575868078142,0.37862217895704287
3214,9.580101728923704,-7.28489115180828,-1.4809691869794872,0.2509385333658787
3215,8.648847991664535,-5.953459808185795,-1.2536293482165426,3.0452482928114026
3216,7.653987904823841,-2.7452084074237857,-0.11461301987975103,7.432377382032282
3217,4.169369686689489,0.35810352874322693,-1.1355613785262193,10.236665412426035
3218,0.9011610563176107,4.192966311883953,-2.8632922751679843,11.407328981805291
3219,0.5099858865551953,9.10428815778981,-1.656320139783101,13.227436127799525
3220,0.024812962209841194,11.82604781340472,1.2727070944754009,13.933523850860889
3221,-1.9867647344587072,11.32826026469725,2.52908508853739,10.423935828347657
3222,-4.123070842614887,9.821057153359002,2.2408928757188127,6.839519950448192
3223,-4.599360810863884,8.990405946123087,1.9783933346922828,5.887558009885085
3224,-2.4126726386517303,9.071394143859724,2.2489858529977487,3.477184877526703
3225,-1.0889797369429703,8.632879753170906,3.486065970264975,-1.6677209701620561
3226,-2.5894129030892183,6.79177919435647,4.178720167142266,-4.329875233594434
3227,-1.9537179932321327,5.460366397403243,4.167684294339126,-1.0364933340916038
3228,2.4282721144551287,5.101051811027714,3.913495965985127,3.919432944665721
3229,4.729538248030066,2.7819635927686317,1.0578712737790774,4.656233604104345
3230,5.095890171797506,-0.8649363644175266,-2.8366170790764706,3.655931465824363
3231,7.584318806361895,-2.055635275404483,-4.681942089576058,5.133073364584702
3232,10.068087558717208,-1.1192677189513196,-5.069251171343797,6.074329663912902
3233,11.804167406222911,-1.5672086898792041,-5.409622424668119,3.886197517899486
3234,13.48934027998595,-3.727290307928636,-5.898664810000872,2.58169442505023
3235,12.644856184031637,-4.459278851038165,-5.14962724667231,5.244481667060374
3236,9.866457462027302,-2.2806144986766164,-3.849104770565445,7.671398240687626
3237,6.270723423307794,0.9571330896734762,-3.386382486830273,6.588755963977811
3238,1.095569339581112,3.4127124686108568,-3.0821967886098123,4.98499776752258
3239,-2.9379936498102133,5.285753867570357,-1.9528350250138833,6.873676185475991
3240,-4.321449735674407,6.67147091531992,0.6308446397930327,10.430394615111851
3241,-5.20515774113949,7.2988282238379085,3.163881707732141,9.136384569194108
3242,-6.429583251615688,7.8056293138153166,4.765662819120723,3.107868227045611
3243,-6.556353748364498,8.632740939864757,7.260561066273804,-1.9668391963252958
3244,-4.165265883908006,10.519115635659393,10.634391865753837,-4.626795063966246
3245,-1.5715951048239356,12.391431720283123,12.092671813416294,-6.532505294412205
3246,-1.7133609318074672,10.513621227431784,10.912461490938615,-7.579530237626948
3247,-2.382105578107643,5.560708199526853,10.017779793636516,-5.541286276430224
3248,-0.8635547821683416,1.1713965148048366,10.480618379284216,-2.3947160861378816
3249,1.7927608225053815,-2.1009030797940866,9.509101935012476,-1.4125836644739733
3250,4.406239085837672,-5.049665885374682,5.916348707522808,-0.4868460342300346
3251,8.389903426692372,-6.296259156222145,3.305847303437814,1.3356664529284785
3252,13.668453972353978,-5.623904771689805,3.507367299351736,3.2474389935748573
3253,15.008832706994674,-6.716278631693825,3.331571373931487,4.2582198184243865
3254,12.250526783656372,-9.899199807070165,1.0365840191005498,2.240421796248426
3255,11.35025231228401,-10.040730885174987,-1.9886374206023198,0.2389179733291555
3256,10.571019621981268,-6.90970688970339,-4.140125577736095,1.4164155407731909
3257,6.823675730718728,-4.460949454846622,-4.266584965183718,2.8569700746168225
3258,3.090246104041838,-2.4437848175416694,-2.567536319225044,4.1259314749032585
3259,2.716145114962582,0.6706554663355958,0.278222046082529,6.831171560859157
3260,4.889134698331217,5.473905391651396,4.026568876191791,9.625923913837166
3261,4.575047977797134,10.497879570716348,6.4822524208907994,9.849892247330102
3262,2.5577650727529884,14.14776408428234,7.596902514485871,7.1130745569775975
3263,1.673122556509979,16.842338691496334,9.918627036807532,2.350804168336591
3264,0.6824114682571979,17.589580680784827,11.578227768509473,-1.8209963668110207
3265,-0.011471773168705235,15.776501006588136,10.443159315632785,-2.229341418655032
3266,-2.2225303800641862,13.284055359447756,8.994219601073212,-1.7256695224526324
3267,-6.113166251006208,12.023953621842555,8.30769334183881,-1.8950902393942797
3268,-8.69891480396987,11.406673757188614,7.1223965748980085,-1.7900323636045312
3269,-9.71099247835486,9.503483098507912,5.542373171115274,-2.1034606610608897
3270,-8.346470147405235,5.955011261187604,4.6778698507122165,-2.1684906683459144
3271,-5.41648014894352,0.8711117731552613,4.155498387863702,-2.592997809548208
3272,-2.313809796221827,-4.73251522370931,2.841044035644356,-3.5490948241249605
3273,1.41857840659925,-8.109371986539909,1.082277983517659,-2.744039052020938
3274,4.869761617566462,-9.232946588754265,-0.1612762657537633,0.3091387277261005
3275,7.0950715320527085,-9.389472758780679,-0.3339418140085011,3.862345849830619
3276,7.6024670627185404,-7.175352387650827,-0.11742560586477915,6.871009668092555
3277,6.526682919088732,-3.4481238367580582,-0.2861624604470191,7.855934747052804
3278,5.387176116539712,-1.4783579773771094,-0.7462500507142608,6.846166102247493
3279,5.079081548787056,-1.0740220171936763,-1.5806232013101928,6.917665711185524
3280,5.801359390634707,0.5133493817885427,-2.4467681027548576,8.08281436177762
3281,6.406651939698336,3.2499558998976843,-2.434257208626466,8.212133224758025
3282,5.894417159830505,5.013756903041813,-2.7835036808132907,6.850031654318811
3283,5.381059859225274,6.082419472614188,-3.352390600814577,5.1281335447482395
3284,4.374820569541317,7.493092588484694,-2.0111448744371114,3.3303840473735704
3285,2.8392397130566933,9.49246458943665,1.7892474212544487,0.48506719065938014
3286,0.057475216600092305,12.11913953400658,6.424015391837759,-2.6377624566397846
3287,-4.763959690540632,13.655460780736032,8.172730812342577,-4.614917498558822
3288,-8.699259011816244,12.322234428088656,6.583573182435521,-4.045967102244927
3289,-11.310628870063793,9.857892732603583,3.380407760976623,-1.5478558408851861
3290,-12.377007184129454,7.085936976946389,-0.960953990462439,0.2709385822034739
3291,-11.542735312823666,1.7213486082863005,-4.683396754943425,0.5762767009411934
3292,-10.669109479620511,-4.652676360260801,-5.418111407588804,0.3981840897922935
3293,-9.80459629292941,-9.668490275030555,-5.130788119372423,0.5056407311204091
3294,-7.9780889777588975,-13.55165094547282,-6.01494219737758,0.5275542499766062
3295,-6.23684018004717,-14.670690116055148,-6.160708334774054,0.9716946461256362
3296,-5.317828187291604,-12.874968124485353,-5.26440070814729,1.7988151317505814
3297,-4.587629312388216,-10.140370371440785,-5.534046154457042,1.7079311057670663
3298,-4.46497262248335,-7.308853715712975,-7.422177812722766,0.4202805776421121
3299,-2.808875763731949,-4.349263893752341,-8.286910915376705,-1.0863310460608484
3300,0.8332147263306275,-1.8734472519604513,-6.257522872612146,-1.3871422682976404
3301,3.0618536511929224,-0.6783158609287057,-3.2044333375308245,-1.0275618563055366
3302,3.4353500836873425,0.008091273939995175,-1.681975068375692,-1.5221577181770383
3303,4.569725306499419,2.3338125261895426,-0.47145834348152205,-1.85745786936243
3304,8.393186787165877,5.943274032450316,1.6339556619476343,-1.412920103491059
3305,11.333602142624839,7.414952688605349,2.960027047148247,-2.255571899833786
3306,11.333202669843903,7.643591063706686,4.21985447935506,-4.011320869773879
3307,10.388860316711774,8.953177790609164,5.228986974722321,-5.876549327025103
3308,5.992140081019985,9.291610580682633,4.027932584653951,-9.338700026442387
3309,-0.8354753049277998,8.066172086725599,2.518802681163807,-11.662078594135629
3310,-5.181240988845979,6.589080006426233,1.792184579883751,-10.291756664316061
3311,-7.6457035596652085,4.910112696935339,1.5712775474493745,-7.255822893695445
3312,-10.541587323905823,2.696971547954559,0.8674447595787252,-3.9280254580771197
3313,-12.307215020380845,-0.6636232896537597,-1.6145194645933896,-1.7880502229703596
3314,-9.673751841659273,-4.570868568956984,-4.053039389687728,-1.5868903017772336
3315,-4.47332188912931,-7.323655755678866,-5.280807369845502,-2.3999637254456103
3316,0.10803708598524606,-8.285953231979601,-4.860761141329314,-3.864936439278831
3317,3.946626554802001,-8.467246466764028,-3.7761447882139874,-5.889116906038934
3318,6.46111176250221,-8.411882437941165,-3.675248071196413,-7.078993291835843
3319,6.983744321128214,-7.789207984012134,-3.7902022957951313,-6.542781648415794
3320,6.06011173002065,-6.959994291109934,-4.620292570094344,-4.460594180472092
3321,4.941364879365078,-4.489811131084144,-4.4976133494375485,0.5361676762014098
3322,3.254958875238344,0.19863924657848156,-1.5603818731910453,5.475626975304284
3323,0.8062194666684485,4.009945948678189,2.4347124656711645,6.977398472379031
3324,-0.5970527385518268,6.894138206134775,5.864935353029577,7.216188546532874
3325,-1.7097865383031672,9.011805661083933,6.902512066280456,6.572881923406286
3326,-4.877824585996731,7.472288099378017,6.502678619870096,4.249160743745828
3327,-7.638775907099406,5.520380926582951,6.426952521182436,1.6482465874759074
3328,-7.6825373334392175,6.902745598599385,5.6135718761392095,1.1710613065842839
3329,-8.54350472997158,8.164866114995021,3.2610620855430943,3.225141172570794
3330,-10.35413458729719,8.104401794355631,1.1826159748250962,5.569911813314104
3331,-11.874295860700135,6.447746149784548,0.6717831015146809,5.24717492835205
3332,-13.151783985908471,1.5115887631360698,1.0749329358664657,1.1271911506767451
3333,-11.05323170765403,-3.6893804963128214,2.422670547917182,-3.403757096164581
3334,-6.803361295060625,-8.274489471235931,3.454786586358272,-6.087305615150928
3335,-2.9370750477599006,-12.722701940942484,4.463644136014487,-7.6638808993740835
3336,1.8657642737067501,-14.936330940203112,6.245837906678502,-7.428397588601169
3337,7.502808649957211,-14.265503213193933,7.598929134269509,-5.548986329023195
3338,11.317332043128545,-10.808433849549484,7.705843434728116,-3.9197448127034993
3339,12.510016522442003,-6.5933942243963815,6.771611767115639,-2.5637517779936907
3340,12.691185460881648,-2.19932149483996,5.930467290224352,0.29867497643515717
3341,11.241174792809375,2.1190294722725627,4.401817220873114,1.9048862136179285
3342,7.885377928980084,3.52839039008086,2.1608778599177625,0.6607831967572094
3343,4.843392429696141,3.7838579200392775,1.0217453563206882,-0.7622009678264414
3344,3.322053576586384,5.854396447154292,1.4679494859950708,-2.0653964798409863
3345,2.352168419825734,8.682146157784947,3.232796133785597,-0.8623637989695508
3346,0.9297937832924291,12.43490354233786,5.933174960312085,2.3039385906608545
3347,-0.4861244371722381,16.241342193621975,7.459629944288373,4.2937465132457495
3348,-2.100001157679796,18.133552333182415,6.944741109054044,6.25975088388905
3349,-4.768493787048225,17.15643991583307,6.503055558605269,8.46181341209815
3350,-7.139047528629198,13.370956619489375,6.894473986611289,9.6716804401897
3351,-8.396647991982913,10.10943700729714,6.83148226459615,10.006782390565554
3352,-8.821057173418586,7.601176669352223,5.146743298338906,10.252106160998887
3353,-8.019457915926676,2.869212783462149,2.6039974011599556,8.86035713770095
3354,-7.7559185834323365,-2.3372778364872167,-0.2314722333774459,5.324955675890104
3355,-8.895443568308512,-6.122400668779557,-4.42366873587841,1.8287378332635562
3356,-9.071468911481144,-10.155184577734213,-7.467056754117825,-1.0450804331695291
3357,-7.567886138067039,-13.168018611227273,-7.006304400804985,-4.705309848683636
3358,-3.620723564639176,-13.676365779802227,-4.368603208608218,-8.751299453680446
3359,2.8412326195984936,-13.029399346934937,-0.8314733056833474,-10.628067264503443
3360,7.146383461190394,-10.199291072416873,1.827215247567696,-9.694719405496102
3361,7.043182014219991,-4.946981605557931,2.4282292199338613,-7.679811359103196
3362,5.1427011197880805,-0.6060899664053293,0.836963567311673,-5.502923695757149
3363,4.079819590251493,2.3698613593904927,-1.0355809646631395,-2.5327730211483064
3364,4.309039264183044,5.633069543926685,-0.5285374727180782,1.42212962490533
3365,5.784003451191652,7.688761078801092,1.048760484261234,5.060673832801894
3366,7.433678748670488,7.895615161011884,1.1336354543500766,5.806366242076945
3367,7.2679776892014605,8.092867737629259,0.72050207711284,5.153629047499416
3368,6.652917952857976,7.842176689190298,0.6806107294861521,5.253187861511927
3369,6.045641273557025,6.3266934246480675,-0.23765320946716562,4.789102871262216
3370,4.161568675968606,4.0025195528511865,-1.6553286602023518,4.424977957631961
3371,2.2723728035101027,1.1046993142340134,-2.658516089656844,5.368851659905799
3372,1.1263557009462237,-1.6181125039061386,-2.7631989534320214,5.192404333416113
3373,0.562120375391723,-3.039670368113289,-1.7648588402328762,3.1373216476098733
3374,0.7721202492513038,-3.803170649340575,-1.5809877737953184,2.282057550716398
3375,0.7002300668092359,-5.040228299798406,-3.1093126555942274,2.011891872402878
3376,-0.07026194261566153,-7.05002108052078,-4.539493630608256,1.1181088758375586
3377,-0.7063875181702787,-10.0475481206446,-5.411019368422081,0.14446979340137192
3378,-1.0461569040603855,-12.781640521266052,-6.286192242114667,-2.3088549993333576
3379,-0.6639342712088535,-14.357291483724698,-5.98967053310825,-5.70640469664435
3380,0.33865081926880114,-14.840273024406125,-3.930572671789075,-8.510584764999987
3381,0.6817077065203995,-13.743882463925583,-2.183717853318833,-12.582928482628214
3382,1.0505323411302034,-9.636782977298788,-0.5427812747150654,-16.087829700083304
3383,1.1847536958661062,-3.578456685085429,2.4119230530360074,-15.280082380698275
3384,0.8459968160728862,1.2771961161192031,4.775294869203974,-11.901524544507941
3385,0.9498805428280803,5.061780949060217,4.121898889900338,-8.12863759402793
3386,0.23079141517332513,7.487731607554309,0.5242709390010529,-5.025126799048236
3387,-0.39073442072861775,8.6814946632962,-2.09262834156912,-1.8331453641549509
3388,0.08992122962172071,9.172058598593338,-1.6670472912760843,1.6759131260546312
3389,0.5228235143116245,7.521272959852029,-1.0261786902846337,4.095302617511361
3390,0.19477309676751747,4.063940773403503,-2.080175648176795,5.879026631545216
3391,-1.3921089163463891,0.22072167838811851,-4.053315076784221,6.169812138305476
3392,-3.110716005411433,-1.5790578318355228,-4.755213734412595,4.339100112533768
3393,-3.812095412084491,-1.3007285421783221,-3.2171919503437505,2.581333989117443
3394,-3.593725315164273,-1.1140928356361113,-0.7401006310265426,2.232035585218604
3395,-2.981693599308185,-2.3364392307558672,1.1052618538414536,1.7438137365936104
3396,-3.102510403078944,-6.635460090986009,0.8043079321298411,-2.2486562483387753
3397,-2.6782506035028755,-10.841794289427673,0.45712337666027675,-9.050946417455958
3398,-0.8954493855827091,-11.00045312829357,3.0058329210341443,-14.526615824068577
3399,0.5446384654874143,-9.741488379889217,6.135662349377077,-16.653902300170753
3400,0.5224119322219384,-9.799625171677688,7.055589754522493,-16.118343389965716
3401,-0.45531471355841335,-10.646611256129287,6.769882582276287,-14.459593949682281
3402,-0.22559739601495238,-11.927693794831528,6.178723878277269,-11.522540267972506
3403,0.6825657310926365,-12.68478694721012,4.847863202071409,-7.238402257187227
3404,0.6240258861297566,-10.890756293806335,4.060547916242099,-1.5934599797988265
3405,-0.9677582187706246,-7.334484298096886,2.948423358518156,5.001176999179627
3406,-2.6822509926453852,-3.1053685452988242,1.6546710924909147,10.104309683578395
3407,-2.486821410692563,0.7598168308344161,2.2550578136301906,11.12236072199617
3408,-0.44026005408031144,2.620828265296762,2.707201424388983,9.496276385762341
3409,2.4606278951247487,2.472874231814345,2.4090244526877234,7.659766024570475
3410,3.962987086373846,-0.4887372989236636,2.6632736132356185,5.076640010044818
3411,4.093753095410769,-4.475136848174155,2.382883047630045,3.160482915103322
3412,3.3090922540586294,-7.033913520531314,0.5035286158495627,2.239482844200878
3413,0.8696049171082476,-9.024775296599312,-1.687117101077929,0.2912438603147416
3414,-1.4480256269023266,-9.594604852548924,-1.6495517340432773,-1.3422072491789085
3415,-0.48997906496222077,-6.97032341682431,0.45093332900817007,-1.9886346318514776
3416,3.932004223704466,-2.053913463702031,3.003009350800244,-1.9944962016178875
3417,7.638100260921176,1.7531512023396552,4.713416352516597,-0.39045602410691826
3418,8.158623044047289,3.3159273650078,3.7626691987347143,0.9206439739279195
3419,7.82968755550438,4.745021513843717,1.3436334166975645,1.8487568811615556
3420,7.7946314391186196,6.092861043418061,-0.789761297137419,3.2506096414313923
3421,7.021650214923276,5.161435450609805,-2.8968816580449714,4.061824761722092
3422,6.297235607033075,2.6706255715687486,-4.4127986610521654,5.881189116244749
3423,5.034892497454008,1.077640811390692,-4.504545461059242,9.043988579333075
3424,0.9202263104928405,0.3778212075716076,-4.68573720199039,11.117124581211346
3425,-3.0637707946940127,0.6996097047125196,-4.673189013381866,11.734459282924238
3426,-4.241603231414562,1.6022863517585464,-3.298592591059464,10.734096145672833
3427,-4.846547684801225,3.0508115013453114,-2.080845652415725,8.150073540440786
3428,-4.880336240956828,5.254398067648807,-0.0389712566579303,5.733872204343603
3429,-4.497284602355137,6.759514082947161,2.469813934455475,3.0491168136258464
3430,-5.074854988659441,7.605856810911934,4.255565365078156,0.2854648833902387
3431,-4.243983229044433,7.937487592157014,6.0191007329524195,-0.9686438836061074
3432,-1.3993559581437702,7.301807036222386,6.475397191903808,-1.8110340333625248
3433,1.2219219390613836,6.710051563620908,5.943700284759352,-2.772073305637905
3434,5.7531496740662345,6.259015623058339,6.545462657448478,-2.262970247043774
3435,11.758318304116436,4.858717746915753,6.031530938970426,-0.9857602751648149
3436,15.191517931996156,2.9197856957480988,2.187422936891073,-0.45530640931138777
3437,15.027768131080963,0.6389288437889391,-1.1741371194448802,-1.2940289454330027
3438,11.802336087945962,-1.3398037684222937,-2.1874335277895165,-3.833907002580372
3439,7.243505114933227,-1.587949485125454,-3.1182744196285355,-4.350656562951464
3440,2.2269172707026215,-1.071375529597655,-4.113090334048733,-0.887600898125886
3441,-2.257496005613564,-0.535863357443509,-4.5931323560960955,2.2111518757047874
3442,-5.792254321210481,-0.06271910341130976,-5.467606746250368,2.951004215298848
3443,-8.342062077301097,-1.4367022875150453,-7.591472214924586,1.9391327493014003
3444,-7.7002652151483915,-3.202880529914771,-9.46203615506516,0.02863812308105826
3445,-5.069030273697523,-1.5875695126543141,-8.54992078452162,-0.20584592815232197
3446,-2.899606349447333,1.491255816245703,-5.511493016882715,-0.08009257142080548
3447,-2.356339795506145,1.4984549045969866,-2.7330570206619753,-3.3750301168084
3448,-2.748270323778401,0.6153490624829933,-0.04390869524489163,-6.794673075307384
3449,-2.5014478808564538,2.477251309573703,3.50281215746169,-6.716421956264102
3450,-2.73220587020404,4.712696591380209,6.116934714651067,-4.875432244658333
3451,-3.2250318456579676,4.68753818219793,6.9865337933421126,-2.424206833472441
3452,-3.4823372996111086,2.248122552578372,6.7655479443135755,-1.0218704591926235
3453,-2.117004968581158,-0.6143300497001378,4.439445039701913,-0.9023224590034129
3454,0.6506401674223896,-1.5419678162096,0.6725191930963649,0.5453148529783197
3455,1.9491244870539666,-0.8315180928836194,-2.120639194580032,2.9759949943281376
3456,2.281879482920783,0.4654953831023388,-3.130992242132069,4.629987340939916
3457,2.641381884113664,-0.33351908274833436,-4.235194123094512,4.572216777090395
3458,2.466888024480063,-3.6219093999284993,-6.289063843384282,2.862673575989067
3459,0.7544782202121055,-5.0610470385642214,-6.607490457016092,0.8644305632331861
3460,-3.0187161457965423,-4.094781869224423,-5.582715328698183,0.42364167701617916
3461,-6.316309423615639,-2.468523100531466,-5.706099162000653,2.786245511824722
3462,-8.24341137646336,-0.47770292930120367,-6.5851096713383495,4.893409125513449
3463,-10.601123475119088,1.25750034763786,-6.787851553697327,5.21143358097979
3464,-11.17969988024428,1.8785267618019543,-5.323260706002343,5.1169083858309765
3465,-8.932039353385955,1.6938541664509394,-2.989171702045261,4.613911082902305
3466,-6.6999648413667225,2.058424693007439,-2.070163655673017,4.203086176457743
3467,-4.523536050012076,3.085951340831164,-1.8345927438557068,4.706733109897472
3468,-2.374695785200021,4.039986083944244,-1.3464175714562836,5.4099197994910115
3469,-1.5504118728782572,4.184382145224771,-1.9535168688488276,4.776854847532457
3470,-1.0389991002332002,3.0321817065649648,-2.481501906955147,4.710766127493441
3471,-0.22099141691695168,-0.046303253682752565,-3.4205121906431906,4.700968524590424
3472,1.0576806466530473,-2.1406412302405777,-5.039811188386424,2.191506436495969
3473,2.249845311794708,-1.6378982776524689,-5.441288353460987,0.01581351735394433
3474,2.43552295927795,-1.9248313607421148,-5.063593863452612,-0.006003898515163086
3475,2.805600175937562,-2.858924671760003,-3.7577970025414023,0.5649330903983786
3476,3.8350599682199964,-1.8909072294239209,-2.1156021140671393,0.9319443880140073
3477,3.3113131203637636,0.33897685476126926,-2.7621549255980606,0.7543195414321525
3478,0.5121839010947028,-0.696557299837721,-5.2161791246005285,-0.03967725949918821
3479,-2.5564097353384936,-4.945099766268165,-6.6670378823853795,-1.6708516053261728
3480,-4.7961174968226,-6.72250834310746,-6.020500885222239,-4.333013489950689
3481,-5.954625926765351,-5.019291759153904,-2.77648501546975,-5.835439432582119
3482,-4.539041760051922,-0.24579253629114095,1.3924621392796257,-4.061773033205506
3483,-1.2538031989476113,5.862295544266004,3.8391851274926183,-0.18856552619580338
3484,0.5340356158720421,7.915361018266761,4.638445418950898,3.369692211106137
